Pixel,Wavelength (nm),Intensity (a.u.)
Pixel,Wavelength,Intensity
0,344.4,685
1,344.867,686.333
2,345.334,684.667
3,345.801,682.75
4,346.268,683.917
5,346.735,684.167
6,347.202,684.667
7,347.669,683.5
8,348.135,681.917
9,348.602,680.5
10,349.068,680.417
11,349.535,681.667
12,350.001,682.333
13,350.467,681.583
14,350.933,683.167
15,351.399,687.417
16,351.866,687.083
17,352.331,686.75
18,352.797,688.417
19,353.263,688.167
20,353.729,685.5
21,354.194,684.583
22,354.66,686.083
23,355.126,685.333
24,355.591,683.833
25,356.056,683.75
26,356.522,682.917
27,356.987,682.583
28,357.452,684.583
29,357.917,687.917
30,358.382,689.917
31,358.847,689.25
32,359.312,687.5
33,359.776,686.25
34,360.241,685.583
35,360.706,685.5
36,361.17,685.667
37,361.634,683.917
38,362.099,682.833
39,362.563,684.833
40,363.027,685.833
41,363.491,687.25
42,363.955,688.75
43,364.419,688
44,364.883,686.917
45,365.347,686.083
46,365.811,685.833
47,366.274,686
48,366.738,686.5
49,367.201,686.583
50,367.665,684.75
51,368.128,684
52,368.592,684.25
53,369.055,685.917
54,369.518,686.417
55,369.981,685.917
56,370.444,685.833
57,370.907,683.667
58,371.37,683.083
59,371.832,685.333
60,372.295,688.25
61,372.757,689.5
62,373.22,687.583
63,373.682,687.333
64,374.145,687.75
65,374.607,687.833
66,375.069,688.25
67,375.531,686.75
68,375.993,683.5
69,376.455,681.833
70,376.917,682
71,377.379,682
72,377.841,682.667
73,378.302,683.083
74,378.764,685.75
75,379.225,688.5
76,379.687,688.833
77,380.148,688.667
78,380.609,689.25
79,381.071,689.417
80,381.532,686.833
81,381.993,684.417
82,382.454,682.833
83,382.915,684.917
84,383.375,687
85,383.836,686.583
86,384.297,686.917
87,384.757,688
88,385.218,688.167
89,385.678,687.667
90,386.138,688.417
91,386.599,689.25
92,387.059,687.833
93,387.519,684.917
94,387.979,681.333
95,388.439,681.5
96,388.899,683.333
97,389.358,684.417
98,389.818,685.25
99,390.278,685.333
100,390.737,687.667
101,391.197,688.167
102,391.656,687.083
103,392.115,688
104,392.575,687.333
105,393.034,685.5
106,393.493,684.75
107,393.952,686.5
108,394.411,689.167
109,394.87,689.667
110,395.328,687.583
111,395.787,688.417
112,396.246,688.417
113,396.704,688.167
114,397.163,689.333
115,397.621,688.917
116,398.079,686.583
117,398.537,685.917
118,398.995,686.333
119,399.454,686.333
120,399.911,687.417
121,400.369,687.5
122,400.827,685.833
123,401.285,686.333
124,401.743,686.5
125,402.2,685.833
126,402.658,686
127,403.115,685.25
128,403.572,683.5
129,404.03,684.667
130,404.487,686.333
131,404.944,685.583
132,405.401,685.583
133,405.858,684.75
134,406.315,683.5
135,406.771,681.25
136,407.228,681.25
137,407.685,683.333
138,408.141,686.917
139,408.598,685.833
140,409.054,682.583
141,409.51,683.75
142,409.967,684.333
143,410.423,683.333
144,410.879,685
145,411.335,686.25
146,411.791,687.5
147,412.246,689.25
148,412.702,688.083
149,413.158,685.833
150,413.613,685.417
151,414.069,685.25
152,414.524,682.417
153,414.98,682.75
154,415.435,683.583
155,415.89,684
156,416.345,686.333
157,416.8,687
158,417.255,687
159,417.71,688.5
160,418.165,688.333
161,418.619,685.167
162,419.074,684.417
163,419.529,686.583
164,419.983,687.667
165,420.437,685.833
166,420.892,685.417
167,421.346,685.583
168,421.8,686
169,422.254,686.917
170,422.708,686.083
171,423.162,684.75
172,423.616,685.083
173,424.07,686.417
174,424.523,687.083
175,424.977,688.667
176,425.43,688.167
177,425.884,684.583
178,426.337,683.25
179,426.79,681.75
180,427.243,681.25
181,427.697,682.667
182,428.15,683.667
183,428.602,685.917
184,429.055,687.25
185,429.508,687.917
186,429.961,687.75
187,430.413,684.667
188,430.866,681.917
189,431.318,680.833
190,431.771,682
191,432.223,682.75
192,432.675,682.917
193,433.127,683
194,433.579,684
195,434.031,685.667
196,434.483,685.917
197,434.935,686.583
198,435.387,686.083
199,435.838,684.333
200,436.29,683.167
201,436.741,684
202,437.193,683.25
203,437.644,683.167
204,438.095,685.167
205,438.546,683.583
206,438.997,681.917
207,439.448,683.083
208,439.899,684.583
209,440.35,685.5
210,440.801,685.333
211,441.251,686
212,441.702,685.583
213,442.152,686.083
214,442.603,685.917
215,443.053,686.5
216,443.503,687.083
217,443.954,687.583
218,444.404,688.083
219,444.854,687.917
220,445.304,687.75
221,445.753,688.333
222,446.203,687.833
223,446.653,685.25
224,447.102,683.667
225,447.552,683.25
226,448.001,682.583
227,448.451,682.917
228,448.9,681.083
229,449.349,679.083
230,449.798,680.5
231,450.247,682.75
232,450.696,685.25
233,451.145,686.333
234,451.594,686.25
235,452.042,686.25
236,452.491,685.667
237,452.939,685.167
238,453.388,686.833
239,453.836,688
240,454.285,686.667
241,454.733,686
242,455.181,685.833
243,455.629,686.333
244,456.077,685.917
245,456.525,686.083
246,456.972,686.833
247,457.42,687.75
248,457.868,688.833
249,458.315,688.083
250,458.763,687.583
251,459.21,689.25
252,459.657,689.75
253,460.104,689.083
254,460.552,686.583
255,460.999,685.083
256,461.446,686.083
257,461.892,686.417
258,462.339,686.417
259,462.786,685.917
260,463.233,684.75
261,463.679,686.583
262,464.125,688.417
263,464.572,688.583
264,465.018,688.417
265,465.464,687.75
266,465.91,687.917
267,466.356,688.25
268,466.802,689.75
269,467.248,689.25
270,467.694,688.75
271,468.14,689.333
272,468.585,688.917
273,469.031,689
274,469.476,688.333
275,469.922,687.833
276,470.367,688
277,470.812,686.75
278,471.257,685.25
279,471.702,685.167
280,472.147,686.083
281,472.592,688.667
282,473.037,691.333
283,473.482,690
284,473.926,688.5
285,474.371,688.083
286,474.815,689.167
287,475.259,690.583
288,475.704,690.25
289,476.148,690.5
290,476.592,689.833
291,477.036,690.917
292,477.48,689.833
293,477.924,688.333
294,478.368,687
295,478.811,686
296,479.255,687.583
297,479.698,689.583
298,480.142,690.667
299,480.585,690
300,481.028,689.583
301,481.472,689.417
302,481.915,688
303,482.358,686.667
304,482.801,687.667
305,483.244,689.167
306,483.686,688.667
307,484.129,687.333
308,484.572,688.083
309,485.014,687.417
310,485.456,685.583
311,485.899,686.25
312,486.341,687.417
313,486.783,689.083
314,487.225,689
315,487.667,688.667
316,488.109,688.583
317,488.551,687.417
318,488.993,687.25
319,489.434,687.667
320,489.876,687.333
321,490.318,686.667
322,490.759,686
323,491.2,685.75
324,491.641,687.417
325,492.083,689
326,492.524,687.75
327,492.965,689.833
328,493.406,690.5
329,493.846,689.917
330,494.287,690.083
331,494.728,688.25
332,495.168,686.917
333,495.609,688.75
334,496.049,690.5
335,496.489,689.5
336,496.93,689.167
337,497.37,691.333
338,497.81,692.833
339,498.25,693.333
340,498.69,692.083
341,499.129,691.917
342,499.569,689.917
343,500.009,689.25
344,500.448,689.333
345,500.888,688.333
346,501.327,689.083
347,501.766,688.333
348,502.206,687.25
349,502.645,685.333
350,503.084,682.917
351,503.523,683.917
352,503.961,686.5
353,504.4,687.667
354,504.839,687.667
355,505.277,687.75
356,505.716,688.417
357,506.154,689.917
358,506.593,688.583
359,507.031,687.333
360,507.469,688.917
361,507.907,690.667
362,508.345,688.667
363,508.783,689.333
364,509.221,691.417
365,509.659,691.25
366,510.096,689
367,510.534,689.083
368,510.971,688.667
369,511.409,687.917
370,511.846,688.75
371,512.283,688.583
372,512.72,688.833
373,513.157,688.333
374,513.594,689
375,514.031,690.25
376,514.468,689.917
377,514.905,689.583
378,515.341,687.667
379,515.778,687.583
380,516.214,690.333
381,516.65,692.5
382,517.087,691
383,517.523,688.667
384,517.959,689.083
385,518.395,690.167
386,518.831,689.083
387,519.267,687.667
388,519.702,689.917
389,520.138,691.333
390,520.574,690.417
391,521.009,688.75
392,521.444,687.917
393,521.88,691.167
394,522.315,694.083
395,522.75,693.833
396,523.185,691.333
397,523.62,691.25
398,524.055,693
399,524.49,692.25
400,524.924,690.417
401,525.359,689
402,525.794,687.25
403,526.228,688.833
404,526.662,690.75
405,527.097,692.583
406,527.531,693
407,527.965,690.917
408,528.399,691.5
409,528.833,691.75
410,529.267,692.333
411,529.7,692.417
412,530.134,693.333
413,530.568,693.5
414,531.001,695.667
415,531.434,696.167
416,531.868,697.417
417,532.301,699.833
418,532.734,700.25
419,533.167,700.5
420,533.6,700
421,534.033,700.833
422,534.466,701.833
423,534.898,700.333
424,535.331,701.833
425,535.763,705
426,536.196,706.167
427,536.628,706.833
428,537.06,709.583
429,537.493,713.5
430,537.925,715.5
431,538.357,717.417
432,538.788,718.917
433,539.22,720.417
434,539.652,723.25
435,540.084,727.25
436,540.515,729.917
437,540.947,731.667
438,541.378,733.333
439,541.809,734.833
440,542.24,737.167
441,542.672,741.25
442,543.103,746.75
443,543.533,750.833
444,543.964,754.667
445,544.395,759.417
446,544.826,765.333
447,545.256,766
448,545.687,766.167
449,546.117,769.5
450,546.547,772.75
451,546.978,776
452,547.408,780.5
453,547.838,783
454,548.268,785.583
455,548.698,792.25
456,549.127,797.167
457,549.557,799.083
458,549.987,803.75
459,550.416,807.5
460,550.846,810.583
461,551.275,813.667
462,551.704,819.333
463,552.133,825.917
464,552.562,829.583
465,552.991,835.167
466,553.42,838.917
467,553.849,842.25
468,554.278,846.583
469,554.706,850.917
470,555.135,855.583
471,555.563,859.833
472,555.991,867.417
473,556.42,873.417
474,556.848,880
475,557.276,886.833
476,557.704,893.5
477,558.132,900.583
478,558.56,907.833
479,558.987,914.083
480,559.415,920.75
481,559.843,928.167
482,560.27,935.167
483,560.697,944.333
484,561.125,953.167
485,561.552,958
486,561.979,963.917
487,562.406,972.667
488,562.833,981
489,563.26,988.167
490,563.686,995.083
491,564.113,1003.5
492,564.54,1014.5
493,564.966,1024.17
494,565.392,1031.08
495,565.819,1040.5
496,566.245,1049.75
497,566.671,1060.5
498,567.097,1071.5
499,567.523,1081.58
500,567.949,1088.58
501,568.374,1098.25
502,568.8,1108.83
503,569.226,1118.58
504,569.651,1129.25
505,570.077,1138.17
506,570.502,1145.75
507,570.927,1153.17
508,571.352,1162.67
509,571.777,1173
510,572.202,1179.92
511,572.627,1188.25
512,573.052,1199
513,573.476,1208.92
514,573.901,1216
515,574.325,1226.17
516,574.75,1240.83
517,575.174,1253.67
518,575.598,1260.67
519,576.022,1266.5
520,576.446,1272.25
521,576.87,1281.33
522,577.294,1290.67
523,577.718,1300.42
524,578.142,1314.58
525,578.565,1329.17
526,578.989,1343.17
527,579.412,1358.08
528,579.835,1368.75
529,580.259,1375.42
530,580.682,1386.17
531,581.105,1401.92
532,581.528,1414.42
533,581.951,1423.42
534,582.373,1436.17
535,582.796,1448.42
536,583.219,1458.58
537,583.641,1466.58
538,584.063,1476
539,584.486,1486.5
540,584.908,1496.17
541,585.33,1506.92
542,585.752,1516.67
543,586.174,1527.75
544,586.596,1537.83
545,587.018,1549.5
546,587.439,1561.67
547,587.861,1572.08
548,588.282,1584.5
549,588.704,1598.33
550,589.125,1614.25
551,589.546,1627.83
552,589.967,1643.83
553,590.388,1661.42
554,590.809,1673.42
555,591.23,1688
556,591.651,1708.5
557,592.071,1724.83
558,592.492,1735.83
559,592.912,1747.75
560,593.333,1762.75
561,593.753,1776
562,594.173,1784.08
563,594.593,1791.25
564,595.013,1801.83
565,595.433,1811.5
566,595.853,1817.33
567,596.273,1823.17
568,596.693,1829
569,597.112,1837.75
570,597.532,1845.33
571,597.951,1853.58
572,598.37,1865.92
573,598.789,1871.25
574,599.208,1876.75
575,599.627,1888.58
576,600.046,1898
577,600.465,1909.67
578,600.884,1925.25
579,601.303,1936.58
580,601.721,1943.33
581,602.139,1954.83
582,602.558,1966.75
583,602.976,1967.08
584,603.394,1972.67
585,603.812,1982.25
586,604.23,1984.75
587,604.648,1992.75
588,605.066,2001.33
589,605.484,2007.58
590,605.901,2019.5
591,606.319,2034.58
592,606.736,2040.58
593,607.154,2040.67
594,607.571,2045.5
595,607.988,2055.58
596,608.405,2065.83
597,608.822,2074.92
598,609.239,2090.83
599,609.656,2105.67
600,610.072,2119
601,610.489,2130.83
602,610.905,2135.83
603,611.322,2140.58
604,611.738,2143.67
605,612.154,2148.33
606,612.57,2163.08
607,612.986,2176.58
608,613.402,2187.67
609,613.818,2193.83
610,614.234,2202.33
611,614.65,2213.42
612,615.065,2224.25
613,615.481,2235.83
614,615.896,2247.92
615,616.311,2252.92
616,616.727,2261.33
617,617.142,2270.5
618,617.557,2279.42
619,617.972,2295.75
620,618.386,2313.42
621,618.801,2328.67
622,619.216,2340.33
623,619.63,2347.08
624,620.045,2350.33
625,620.459,2351.58
626,620.873,2356
627,621.287,2366.25
628,621.702,2376.17
629,622.116,2386.58
630,622.529,2393.42
631,622.943,2408.25
632,623.357,2424.5
633,623.771,2429.75
634,624.184,2438.33
635,624.597,2454
636,625.011,2467.83
637,625.424,2475.75
638,625.837,2482
639,626.25,2481.5
640,626.663,2482.58
641,627.076,2495.33
642,627.489,2500.33
643,627.901,2505.08
644,628.314,2522.08
645,628.726,2543.25
646,629.139,2554.75
647,629.551,2557
648,629.963,2566.5
649,630.375,2582.67
650,630.787,2599.83
651,631.199,2614.25
652,631.611,2624.33
653,632.023,2629.75
654,632.434,2640.92
655,632.846,2655.58
656,633.257,2665.83
657,633.669,2677.08
658,634.08,2685.42
659,634.491,2690.5
660,634.902,2704.5
661,635.313,2707.25
662,635.724,2706.58
663,636.135,2720.33
664,636.545,2734.17
665,636.956,2746.42
666,637.366,2758.5
667,637.777,2771.83
668,638.187,2780.08
669,638.597,2791.5
670,639.007,2809.42
671,639.417,2815.67
672,639.827,2822.25
673,640.237,2833.5
674,640.647,2841.17
675,641.056,2842.83
676,641.466,2848.58
677,641.875,2860.75
678,642.285,2870.5
679,642.694,2885.08
680,643.103,2896.58
681,643.512,2901.58
682,643.921,2910.67
683,644.33,2927.67
684,644.739,2939.25
685,645.148,2940.25
686,645.556,2942.83
687,645.965,2951.17
688,646.373,2964.5
689,646.781,2977.08
690,647.189,2993
691,647.598,3008.33
692,648.006,3019.33
693,648.414,3027.83
694,648.821,3031.5
695,649.229,3034.67
696,649.637,3034.25
697,650.044,3028.58
698,650.452,3027.67
699,650.859,3034.33
700,651.266,3028.92
701,651.673,3027.92
702,652.08,3039.83
703,652.487,3050.33
704,652.894,3066.58
705,653.301,3097.67
706,653.708,3118.33
707,654.114,3124.75
708,654.521,3135.17
709,654.927,3141.58
710,655.333,3156.17
711,655.74,3174
712,656.146,3180.5
713,656.552,3188.25
714,656.958,3205.75
715,657.363,3219.33
716,657.769,3224.17
717,658.175,3233.42
718,658.58,3248.42
719,658.986,3259.25
720,659.391,3263.92
721,659.796,3262.83
722,660.201,3264
723,660.606,3270.08
724,661.011,3265.75
725,661.416,3271.75
726,661.821,3290.17
727,662.225,3305.08
728,662.63,3320.17
729,663.034,3325.25
730,663.439,3332.5
731,663.843,3341.17
732,664.247,3348.17
733,664.651,3359.33
734,665.055,3370.58
735,665.459,3382.83
736,665.863,3391.75
737,666.267,3391.25
738,666.67,3399.33
739,667.074,3414.58
740,667.477,3425.92
741,667.88,3435.17
742,668.283,3449.17
743,668.687,3467.58
744,669.09,3471.75
745,669.492,3480.58
746,669.895,3490.58
747,670.298,3492.5
748,670.701,3497.42
749,671.103,3499.17
750,671.505,3510.5
751,671.908,3514.92
752,672.31,3516.92
753,672.712,3535
754,673.114,3548.75
755,673.516,3562.5
756,673.918,3563.33
757,674.32,3567.42
758,674.721,3581.58
759,675.123,3584.5
760,675.524,3586
761,675.926,3590.83
762,676.327,3599.33
763,676.728,3611.75
764,677.129,3616.42
765,677.53,3638.25
766,677.931,3660.58
767,678.332,3673
768,678.732,3694.33
769,679.133,3698.83
770,679.533,3683.92
771,679.934,3670.08
772,680.334,3666.17
773,680.734,3677.75
774,681.134,3689
775,681.534,3705.42
776,681.934,3732.83
777,682.334,3757.42
778,682.733,3785.5
779,683.133,3807.83
780,683.532,3820.92
781,683.932,3828
782,684.331,3827.42
783,684.73,3822.83
784,685.129,3824.17
785,685.528,3832.58
786,685.927,3836.67
787,686.326,3838
788,686.725,3838.58
789,687.123,3840.5
790,687.522,3847.5
791,687.92,3860.17
792,688.319,3873
793,688.717,3891.42
794,689.115,3911
795,689.513,3923.58
796,689.911,3934.17
797,690.309,3951.17
798,690.706,3967.92
799,691.104,3980.75
800,691.501,4001.5
801,691.899,4009.83
802,692.296,4007
803,692.693,4008.25
804,693.09,4009.75
805,693.488,4019.5
806,693.884,4035.75
807,694.281,4037.25
808,694.678,4033.83
809,695.075,4037.33
810,695.471,4043.75
811,695.868,4042.17
812,696.264,4041
813,696.66,4049.92
814,697.056,4062.75
815,697.452,4069.42
816,697.848,4083.58
817,698.244,4095.67
818,698.64,4099.25
819,699.035,4107.08
820,699.431,4114.75
821,699.826,4127.92
822,700.222,4137.83
823,700.617,4147.33
824,701.012,4148.08
825,701.407,4149.75
826,701.802,4165.67
827,702.197,4189.67
828,702.592,4198.67
829,702.986,4206.83
830,703.381,4232.83
831,703.775,4250.58
832,704.17,4256.17
833,704.564,4249.83
834,704.958,4237.5
835,705.352,4235.17
836,705.746,4233.5
837,706.14,4237.42
838,706.533,4252.25
839,706.927,4260.83
840,707.321,4269.83
841,707.714,4294.75
842,708.107,4305.92
843,708.501,4292
844,708.894,4276.67
845,709.287,4261.75
846,709.68,4256.92
847,710.073,4256.67
848,710.465,4248.25
849,710.858,4240
850,711.251,4238.42
851,711.643,4237.67
852,712.035,4237.5
853,712.428,4238.75
854,712.82,4248
855,713.212,4257
856,713.604,4268.58
857,713.995,4288.58
858,714.387,4297.75
859,714.779,4294.92
860,715.17,4302.17
861,715.562,4325.17
862,715.953,4332.58
863,716.344,4314.08
864,716.735,4294.58
865,717.127,4285.75
866,717.517,4276.58
867,717.908,4257.67
868,718.299,4239.5
869,718.69,4241.75
870,719.08,4236.5
871,719.471,4211.67
872,719.861,4190.25
873,720.251,4173.17
874,720.641,4159.17
875,721.031,4164.17
876,721.421,4181.5
877,721.811,4185.33
878,722.201,4193.67
879,722.59,4195.83
880,722.98,4186.08
881,723.369,4189.33
882,723.759,4193.17
883,724.148,4183.58
884,724.537,4176.58
885,724.926,4179.33
886,725.315,4188.67
887,725.704,4196.08
888,726.092,4196.17
889,726.481,4201.75
890,726.87,4193.42
891,727.258,4178
892,727.646,4178.17
893,728.034,4175.67
894,728.423,4174.83
895,728.811,4185.42
896,729.198,4195.5
897,729.586,4191.5
898,729.974,4176.92
899,730.362,4160.58
900,730.749,4147.75
901,731.136,4152.75
902,731.524,4146.75
903,731.911,4148.58
904,732.298,4161.5
905,732.685,4162.83
906,733.072,4153.42
907,733.459,4144
908,733.845,4139.83
909,734.232,4127.17
910,734.618,4108.25
911,735.005,4103
912,735.391,4123.67
913,735.777,4140.33
914,736.163,4149.42
915,736.549,4159.5
916,736.935,4162.25
917,737.321,4170.33
918,737.706,4178
919,738.092,4178.25
920,738.477,4185.83
921,738.863,4203.92
922,739.248,4208.75
923,739.633,4208.08
924,740.018,4214.92
925,740.403,4215.75
926,740.788,4219.33
927,741.173,4225.75
928,741.557,4239.17
929,741.942,4251.42
930,742.326,4238.75
931,742.711,4227.33
932,743.095,4236
933,743.479,4243.08
934,743.863,4239.67
935,744.247,4244.83
936,744.631,4257.08
937,745.015,4257.75
938,745.398,4254.33
939,745.782,4252.33
940,746.165,4251
941,746.548,4244
942,746.932,4233
943,747.315,4230.5
944,747.698,4231.75
945,748.081,4229.5
946,748.463,4223.08
947,748.846,4220.67
948,749.229,4226.33
949,749.611,4233.75
950,749.993,4243.92
951,750.376,4250.92
952,750.758,4254.83
953,751.14,4248.75
954,751.522,4240
955,751.904,4251.42
956,752.285,4263.75
957,752.667,4279.08
958,753.049,4290.67
959,753.43,4289.83
960,753.811,4288.08
961,754.193,4272.92
962,754.574,4261.25
963,754.955,4262.67
964,755.336,4268.25
965,755.717,4276.33
966,756.097,4278.42
967,756.478,4287
968,756.858,4296.5
969,757.239,4295.75
970,757.619,4285.42
971,757.999,4264.83
972,758.379,4243.42
973,758.759,4234.33
974,759.139,4243.17
975,759.519,4248.58
976,759.899,4238.42
977,760.278,4239.83
978,760.658,4248.58
979,761.037,4251.08
980,761.417,4251.58
981,761.796,4260.25
982,762.175,4271.08
983,762.554,4281.92
984,762.933,4301.33
985,763.311,4318.17
986,763.69,4330.92
987,764.068,4335.5
988,764.447,4335.92
989,764.825,4337.42
990,765.203,4348.08
991,765.582,4359.5
992,765.96,4343.75
993,766.338,4318.83
994,766.715,4302.25
995,767.093,4296.58
996,767.471,4287
997,767.848,4284.5
998,768.226,4305.75
999,768.603,4313.92
1000,768.98,4310.67
1001,769.357,4314.08
1002,769.734,4325.17
1003,770.111,4334.42
1004,770.488,4335.83
1005,770.864,4345
1006,771.241,4351.83
1007,771.617,4342.17
1008,771.994,4328.67
1009,772.37,4319.08
1010,772.746,4318.25
1011,773.122,4340
1012,773.498,4356.33
1013,773.874,4353.92
1014,774.25,4354.33
1015,774.625,4358.83
1016,775.001,4360.25
1017,775.376,4357.42
1018,775.751,4345.42
1019,776.127,4338.92
1020,776.502,4345.25
1021,776.877,4354.08
1022,777.252,4361.33
1023,777.626,4366.42
1024,778.001,4369.75
1025,778.375,4369.33
1026,778.75,4363.92
1027,779.124,4349.83
1028,779.499,4352.83
1029,779.873,4357.58
1030,780.247,4347.58
1031,780.621,4340
1032,780.994,4335
1033,781.368,4347.5
1034,781.742,4362.42
1035,782.115,4375.25
1036,782.489,4393
1037,782.862,4409.58
1038,783.235,4415.83
1039,783.608,4414.42
1040,783.981,4397.92
1041,784.354,4386.92
1042,784.727,4384.83
1043,785.1,4364.5
1044,785.472,4362
1045,785.845,4377.17
1046,786.217,4378.08
1047,786.589,4368.17
1048,786.961,4352
1049,787.333,4330.33
1050,787.705,4324.33
1051,788.077,4328.17
1052,788.449,4321.75
1053,788.82,4326
1054,789.192,4336.75
1055,789.563,4335.08
1056,789.934,4333.33
1057,790.306,4329.92
1058,790.677,4330
1059,791.048,4330
1060,791.419,4317.83
1061,791.789,4303.08
1062,792.16,4290.92
1063,792.53,4277.5
1064,792.901,4271.17
1065,793.271,4268.25
1066,793.641,4252.92
1067,794.012,4226.83
1068,794.382,4223.08
1069,794.751,4239
1070,795.121,4244.75
1071,795.491,4239.25
1072,795.861,4233.58
1073,796.23,4228.5
1074,796.599,4233.25
1075,796.969,4254.42
1076,797.338,4271.92
1077,797.707,4284.42
1078,798.076,4292.75
1079,798.445,4290.83
1080,798.813,4283.67
1081,799.182,4261.83
1082,799.55,4240.17
1083,799.919,4224.92
1084,800.287,4204.83
1085,800.655,4198.58
1086,801.023,4211.83
1087,801.391,4225
1088,801.759,4224.58
1089,802.127,4221.17
1090,802.495,4227.25
1091,802.862,4236
1092,803.23,4228.25
1093,803.597,4216.42
1094,803.964,4218.75
1095,804.331,4213.58
1096,804.698,4208.33
1097,805.065,4198.75
1098,805.432,4171.58
1099,805.799,4159.17
1100,806.165,4152.25
1101,806.532,4135.5
1102,806.898,4132.25
1103,807.264,4130.5
1104,807.631,4118.08
1105,807.997,4115.75
1106,808.363,4121.75
1107,808.728,4122.83
1108,809.094,4124.83
1109,809.46,4114.58
1110,809.825,4102.33
1111,810.191,4094.92
1112,810.556,4086.83
1113,810.921,4085.92
1114,811.286,4086.67
1115,811.651,4094.83
1116,812.016,4092.42
1117,812.381,4075.33
1118,812.745,4066.17
1119,813.11,4062.92
1120,813.474,4052.25
1121,813.839,4041.42
1122,814.203,4032.08
1123,814.567,4022.92
1124,814.931,4004.17
1125,815.295,3989.42
1126,815.659,3999
1127,816.022,3995.67
1128,816.386,3972.75
1129,816.749,3961.67
1130,817.113,3954.92
1131,817.476,3944.33
1132,817.839,3944.33
1133,818.202,3954
1134,818.565,3958.08
1135,818.928,3949.92
1136,819.291,3939.17
1137,819.653,3933.67
1138,820.016,3937.17
1139,820.378,3937.33
1140,820.74,3926.33
1141,821.102,3923.17
1142,821.464,3921.08
1143,821.826,3916.42
1144,822.188,3912.17
1145,822.55,3902.42
1146,822.912,3899.17
1147,823.273,3901.33
1148,823.634,3899.67
1149,823.996,3890.17
1150,824.357,3881.08
1151,824.718,3867.17
1152,825.079,3855.25
1153,825.44,3847.5
1154,825.801,3833.58
1155,826.161,3825.33
1156,826.522,3823.58
1157,826.882,3819.42
1158,827.242,3813.17
1159,827.603,3812
1160,827.963,3823.33
1161,828.323,3833.58
1162,828.682,3841.33
1163,829.042,3838.83
1164,829.402,3831.58
1165,829.761,3826.83
1166,830.121,3819.58
1167,830.48,3806.17
1168,830.839,3785
1169,831.198,3770.25
1170,831.557,3763.67
1171,831.916,3753.75
1172,832.275,3744.33
1173,832.634,3725.08
1174,832.992,3703.67
1175,833.351,3682.42
1176,833.709,3663.08
1177,834.067,3659.17
1178,834.425,3658.75
1179,834.783,3651.83
1180,835.141,3643.92
1181,835.499,3636.92
1182,835.857,3639.92
1183,836.214,3639.67
1184,836.572,3634.92
1185,836.929,3637.33
1186,837.286,3630.58
1187,837.644,3619.67
1188,838.001,3603.08
1189,838.357,3594.25
1190,838.714,3592.5
1191,839.071,3584.17
1192,839.428,3580.17
1193,839.784,3574.17
1194,840.14,3564.67
1195,840.497,3549.75
1196,840.853,3534.33
1197,841.209,3524.25
1198,841.565,3513.25
1199,841.92,3504.83
1200,842.276,3504.17
1201,842.632,3504
1202,842.987,3508.58
1203,843.343,3515.92
1204,843.698,3510.42
1205,844.053,3499.75
1206,844.408,3505.75
1207,844.763,3506.75
1208,845.118,3494.25
1209,845.472,3487.67
1210,845.827,3478.67
1211,846.181,3474.17
1212,846.536,3478.25
1213,846.89,3478.75
1214,847.244,3466.17
1215,847.598,3452.67
1216,847.952,3454.17
1217,848.306,3454.67
1218,848.66,3453.58
1219,849.013,3453.75
1220,849.367,3457.42
1221,849.72,3455.5
1222,850.073,3449.08
1223,850.427,3449.25
1224,850.78,3446.08
1225,851.133,3434.25
1226,851.485,3418.58
1227,851.838,3403.58
1228,852.191,3387.58
1229,852.543,3387.75
1230,852.896,3393.25
1231,853.248,3386.25
1232,853.6,3375.67
1233,853.952,3370.08
1234,854.304,3364.25
1235,854.656,3352.92
1236,855.007,3340.83
1237,855.359,3339.5
1238,855.71,3340.17
1239,856.062,3336.5
1240,856.413,3329.75
1241,856.764,3313.75
1242,857.115,3292.17
1243,857.466,3288.5
1244,857.817,3290.83
1245,858.168,3287.25
1246,858.518,3290.67
1247,858.869,3282.92
1248,859.219,3265.08
1249,859.569,3248.67
1250,859.92,3237.08
1251,860.27,3225.83
1252,860.619,3213.83
1253,860.969,3216.08
1254,861.319,3223.83
1255,861.669,3225.58
1256,862.018,3226.67
1257,862.367,3226
1258,862.717,3216.58
1259,863.066,3213.5
1260,863.415,3220.42
1261,863.764,3214.33
1262,864.112,3196.08
1263,864.461,3178.92
1264,864.81,3166.08
1265,865.158,3156.75
1266,865.507,3148.17
1267,865.855,3139.75
1268,866.203,3138.08
1269,866.551,3150.92
1270,866.899,3160.58
1271,867.247,3155.92
1272,867.594,3145.5
1273,867.942,3140.5
1274,868.289,3134.42
1275,868.637,3129
1276,868.984,3136.42
1277,869.331,3154
1278,869.678,3168.08
1279,870.025,3175.42
1280,870.372,3170.42
1281,870.718,3164.92
1282,871.065,3169.67
1283,871.411,3163.5
1284,871.758,3145.83
1285,872.104,3130.58
1286,872.45,3114.5
1287,872.796,3107.67
1288,873.142,3111.33
1289,873.488,3114.67
1290,873.833,3103.25
1291,874.179,3092.67
1292,874.524,3102.25
1293,874.869,3109.75
1294,875.215,3112.08
1295,875.56,3110.5
1296,875.905,3099.58
1297,876.25,3088.67
1298,876.594,3084.5
1299,876.939,3083.92
1300,877.283,3079.08
1301,877.628,3065.25
1302,877.972,3056
1303,878.316,3049.75
1304,878.66,3034.83
1305,879.004,3013
1306,879.348,2995.42
1307,879.692,2984.25
1308,880.035,2976.17
1309,880.379,2969.08
1310,880.722,2963.58
1311,881.066,2963.25
1312,881.409,2963.5
1313,881.752,2962
1314,882.095,2959.33
1315,882.438,2958.75
1316,882.78,2967.75
1317,883.123,2966.92
1318,883.465,2956.75
1319,883.808,2955.42
1320,884.15,2951.83
1321,884.492,2951.5
1322,884.834,2946.75
1323,885.176,2935.33
1324,885.518,2928.17
1325,885.859,2926.58
1326,886.201,2920.75
1327,886.542,2912.75
1328,886.884,2908.58
1329,887.225,2906.5
1330,887.566,2907.25
1331,887.907,2914.92
1332,888.248,2915.17
1333,888.589,2908.83
1334,888.929,2908.42
1335,889.27,2899.5
1336,889.61,2883.33
1337,889.951,2875.83
1338,890.291,2871.92
1339,890.631,2866.25
1340,890.971,2862.42
1341,891.311,2851.75
1342,891.65,2842.08
1343,891.99,2838.5
1344,892.329,2833
1345,892.669,2826.17
1346,893.008,2817.58
1347,893.347,2808.17
1348,893.686,2802.67
1349,894.025,2791.67
1350,894.364,2777.83
1351,894.703,2770.67
1352,895.041,2770.67
1353,895.38,2781
1354,895.718,2789.42
1355,896.056,2789.25
1356,896.395,2785.92
1357,896.733,2780.58
1358,897.071,2779.08
1359,897.408,2769.25
1360,897.746,2759.75
1361,898.084,2774.08
1362,898.421,2787.75
1363,898.758,2783.17
1364,899.095,2776.08
1365,899.433,2767
1366,899.77,2756.33
1367,900.106,2749.83
1368,900.443,2744.83
1369,900.78,2740.83
1370,901.116,2732.92
1371,901.453,2726.42
1372,901.789,2718.67
1373,902.125,2711.67
1374,902.461,2707
1375,902.797,2696.33
1376,903.133,2687.33
1377,903.469,2680.17
1378,903.804,2679.58
1379,904.14,2686.33
1380,904.475,2683.67
1381,904.81,2677.58
1382,905.146,2669.17
1383,905.481,2659.58
1384,905.815,2661.75
1385,906.15,2656.08
1386,906.485,2641.5
1387,906.819,2629.25
1388,907.154,2616.25
1389,907.488,2608.42
1390,907.822,2608.58
1391,908.156,2607.25
1392,908.49,2608
1393,908.824,2600.25
1394,909.158,2590.92
1395,909.492,2587.92
1396,909.825,2583.17
1397,910.159,2583.67
1398,910.492,2587.75
1399,910.825,2588.67
1400,911.158,2590.58
1401,911.491,2588.42
1402,911.824,2581.83
1403,912.157,2579.42
1404,912.489,2580.92
1405,912.822,2581.5
1406,913.154,2571.08
1407,913.486,2553.67
1408,913.818,2543.17
1409,914.15,2539.67
1410,914.482,2524.58
1411,914.814,2511.92
1412,915.146,2510.5
1413,915.477,2503.75
1414,915.809,2503.17
1415,916.14,2504.75
1416,916.471,2506.67
1417,916.802,2501.75
1418,917.133,2493.33
1419,917.464,2483.75
1420,917.795,2477.92
1421,918.125,2476.75
1422,918.456,2464.58
1423,918.786,2452.58
1424,919.116,2443.67
1425,919.446,2435.67
1426,919.776,2431.42
1427,920.106,2424.42
1428,920.436,2416.75
1429,920.766,2412.83
1430,921.095,2409.75
1431,921.425,2401.83
1432,921.754,2391.67
1433,922.083,2388.25
1434,922.412,2390.75
1435,922.741,2386.25
1436,923.07,2381.5
1437,923.399,2371.25
1438,923.727,2354.17
1439,924.056,2340.5
1440,924.384,2328.83
1441,924.713,2313.67
1442,925.041,2303.75
1443,925.369,2304.33
1444,925.697,2297.92
1445,926.024,2282
1446,926.352,2274.25
1447,926.68,2270.92
1448,927.007,2264.83
1449,927.334,2261.17
1450,927.662,2262.25
1451,927.989,2267.25
1452,928.316,2276.25
1453,928.643,2275.25
1454,928.969,2271.42
1455,929.296,2276.58
1456,929.622,2276.83
1457,929.949,2268.33
1458,930.275,2257.5
1459,930.601,2248.58
1460,930.927,2240.83
1461,931.253,2231.75
1462,931.579,2218.5
1463,931.905,2205.92
1464,932.23,2200
1465,932.556,2196.17
1466,932.881,2189.58
1467,933.206,2179.17
1468,933.531,2165.25
1469,933.856,2156.67
1470,934.181,2151.25
1471,934.506,2144.08
1472,934.83,2136.58
1473,935.155,2124.25
1474,935.479,2118.33
1475,935.803,2118.67
1476,936.128,2118.58
1477,936.452,2119.92
1478,936.775,2116.42
1479,937.099,2105.42
1480,937.423,2093.75
1481,937.746,2087.5
1482,938.07,2084.08
1483,938.393,2082.17
1484,938.716,2082.58
1485,939.039,2075.33
1486,939.362,2065.58
1487,939.685,2064.58
1488,940.008,2062.17
1489,940.331,2055.92
1490,940.653,2048.42
1491,940.975,2038
1492,941.298,2028
1493,941.62,2015
1494,941.942,2000.83
1495,942.264,1989
1496,942.585,1986
1497,942.907,1983.83
1498,943.229,1977.5
1499,943.55,1969
1500,943.871,1956.58
1501,944.192,1952.58
1502,944.513,1952.83
1503,944.834,1948.17
1504,945.155,1943.42
1505,945.476,1934.25
1506,945.796,1921.08
1507,946.117,1904.17
1508,946.437,1877.58
1509,946.757,1847.42
1510,947.078,1822
1511,947.398,1804.92
1512,947.717,1799.67
1513,948.037,1801.33
1514,948.357,1809.17
1515,948.676,1819.17
1516,948.996,1823.42
1517,949.315,1831.42
1518,949.634,1839.58
1519,949.953,1842.83
1520,950.272,1843.33
1521,950.591,1838.67
1522,950.909,1828.67
1523,951.228,1823.33
1524,951.546,1818.5
1525,951.865,1810
1526,952.183,1798.08
1527,952.501,1786.67
1528,952.819,1784.33
1529,953.137,1780.83
1530,953.454,1779.25
1531,953.772,1778.83
1532,954.089,1773.67
1533,954.407,1767.83
1534,954.724,1761.42
1535,955.041,1752.75
1536,955.358,1743
1537,955.675,1732.92
1538,955.992,1724.75
1539,956.308,1720.58
1540,956.625,1714.25
1541,956.941,1708.67
1542,957.257,1702.42
1543,957.574,1695.83
1544,957.89,1692
1545,958.206,1684.83
1546,958.521,1679.58
1547,958.837,1677.75
1548,959.152,1673.17
1549,959.468,1665.42
1550,959.783,1657.5
1551,960.098,1646.33
1552,960.413,1634.83
1553,960.728,1624.25
1554,961.043,1617.92
1555,961.358,1618.08
1556,961.672,1618.08
1557,961.987,1614.08
1558,962.301,1607.92
1559,962.615,1604.67
1560,962.93,1596
1561,963.244,1587.17
1562,963.557,1584.58
1563,963.871,1580.5
1564,964.185,1578.25
1565,964.498,1576.67
1566,964.812,1574.25
1567,965.125,1568.33
1568,965.438,1557.83
1569,965.751,1549.17
1570,966.064,1544.92
1571,966.377,1542.25
1572,966.689,1541
1573,967.002,1537.75
1574,967.314,1530.5
1575,967.626,1524.33
1576,967.939,1518.33
1577,968.251,1515.75
1578,968.563,1511.08
1579,968.874,1507.67
1580,969.186,1507.83
1581,969.498,1501
1582,969.809,1492.75
1583,970.12,1486.42
1584,970.431,1479.58
1585,970.743,1475.75
1586,971.053,1467.83
1587,971.364,1466.33
1588,971.675,1469.08
1589,971.986,1463.33
1590,972.296,1456.08
1591,972.606,1451.92
1592,972.917,1450.42
1593,973.227,1444.67
1594,973.537,1433.75
1595,973.847,1424
1596,974.156,1417
1597,974.466,1414.42
1598,974.775,1409.42
1599,975.085,1399
1600,975.394,1389.92
1601,975.703,1383.83
1602,976.012,1379.17
1603,976.321,1375.25
1604,976.63,1370.5
1605,976.938,1366
1606,977.247,1361.33
1607,977.555,1354.08
1608,977.863,1347.67
1609,978.172,1341.58
1610,978.48,1334.25
1611,978.787,1327.17
1612,979.095,1317.67
1613,979.403,1310.33
1614,979.71,1304.75
1615,980.018,1302.17
1616,980.325,1295.92
1617,980.632,1287
1618,980.939,1285.42
1619,981.246,1282.5
1620,981.553,1278.58
1621,981.86,1281.08
1622,982.166,1278.17
1623,982.473,1270.33
1624,982.779,1265.67
1625,983.085,1261
1626,983.391,1253.67
1627,983.697,1248.33
1628,984.003,1242.58
1629,984.309,1232.08
1630,984.614,1224.67
1631,984.92,1220
1632,985.225,1213.67
1633,985.53,1207.5
1634,985.835,1205.33
1635,986.14,1203
1636,986.445,1196.75
1637,986.75,1189.83
1638,987.054,1181.92
1639,987.359,1178.25
1640,987.663,1174.42
1641,987.967,1166.33
1642,988.271,1158.17
1643,988.575,1151
1644,988.879,1142.92
1645,989.183,1132.25
1646,989.487,1121.17
1647,989.79,1112.83
1648,990.093,1106.25
1649,990.397,1100.42
1650,990.7,1095.92
1651,991.003,1092.17
1652,991.306,1085.67
1653,991.608,1077.42
1654,991.911,1071.75
1655,992.213,1063.75
1656,992.516,1057.5
1657,992.818,1050.83
1658,993.12,1041
1659,993.422,1032.83
1660,993.724,1024.75
1661,994.026,1019.33
1662,994.327,1013.17
1663,994.629,1008.58
1664,994.93,1005.42
1665,995.232,1001
1666,995.533,993.417
1667,995.834,987.833
1668,996.135,984.583
1669,996.435,976.833
1670,996.736,967.917
1671,997.036,962.25
1672,997.337,957.75
1673,997.637,953.5
1674,997.937,948.333
1675,998.237,941.25
1676,998.537,933.833
1677,998.837,928.833
1678,999.137,924.25
1679,999.436,917.667
1680,999.735,913.417
1681,1000.03,909.417
1682,1000.33,906.333
1683,1000.63,902.667
1684,1000.93,896.583
1685,1001.23,890.333
1686,1001.53,885.25
1687,1001.83,880.667
1688,1002.13,875.583
1689,1002.42,870.5
1690,1002.72,867.833
1691,1003.02,863.833
1692,1003.32,858.75
1693,1003.62,856.333
1694,1003.91,853.417
1695,1004.21,850.667
1696,1004.51,847.917
1697,1004.81,843.917
1698,1005.1,840.5
1699,1005.4,838.667
1700,1005.7,835.167
1701,1005.99,832
1702,1006.29,829.083
1703,1006.59,827.083
1704,1006.88,824.25
1705,1007.18,822.417
1706,1007.48,821.5
1707,1007.77,817.583
1708,1008.07,813.917
1709,1008.36,810.167
1710,1008.66,806.5
1711,1008.95,804
1712,1009.25,802.75
1713,1009.55,799.417
1714,1009.84,795.917
1715,1010.14,792.083
1716,1010.43,790.25
1717,1010.73,787.667
1718,1011.02,782.667
1719,1011.31,780.417
1720,1011.61,779.5
1721,1011.9,776.5
1722,1012.2,773
1723,1012.49,771.5
1724,1012.79,771.333
1725,1013.08,769.583
1726,1013.37,767.333
1727,1013.67,761.333
1728,1013.96,757.5
1729,1014.25,756.667
1730,1014.55,754.417
1731,1014.84,752
1732,1015.13,751.25
1733,1015.42,750.5
1734,1015.72,748.667
1735,1016.01,745.75
1736,1016.3,742.75
1737,1016.59,740.75
1738,1016.89,739.5
1739,1017.18,737.333
1740,1017.47,733.25
1741,1017.76,729.25
1742,1018.05,726.333
1743,1018.35,725.583
1744,1018.64,724.917
1745,1018.93,724.75
1746,1019.22,723.833
1747,1019.51,722.417
1748,1019.8,719.75
1749,1020.09,718.333
1750,1020.38,717.083
1751,1020.67,714.667
1752,1020.96,712.167
1753,1021.25,710.917
1754,1021.54,709.583
1755,1021.83,707.917
1756,1022.12,707.25
1757,1022.41,704.167
1758,1022.7,703.167
1759,1022.99,705.5
1760,1023.28,706.417
1761,1023.57,704.75
1762,1023.86,703.25
1763,1024.15,702.083
1764,1024.44,700.25
1765,1024.73,698.083
1766,1025.02,696.667
1767,1025.3,695.75
1768,1025.59,694.333
1769,1025.88,694.667
1770,1026.17,695.167
1771,1026.46,693.417
1772,1026.74,693.333
1773,1027.03,693.833
1774,1027.32,693
1775,1027.61,692.833
1776,1027.89,692.25
1777,1028.18,691.833
1778,1028.47,692
1779,1028.76,691.417
1780,1029.04,692
1781,1029.33,692.167
1782,1029.62,691.5
1783,1029.9,693.25
1784,1030.19,693
1785,1030.47,690.833
1786,1030.76,688.917
1787,1031.05,687.833
1788,1031.33,687.167
1789,1031.62,687.167
1790,1031.9,688.333
1791,1032.19,688.5
1792,1032.47,689.75
1793,1032.76,690.75
1794,1033.04,689.75
1795,1033.33,687.333
1796,1033.61,685.583
1797,1033.9,684.667
1798,1034.18,685.75
1799,1034.47,687.083
1800,1034.75,688.25
1801,1035.04,687.917
1802,1035.32,689.333
1803,1035.6,689.917
1804,1035.89,688.667
1805,1036.17,689.583
1806,1036.45,687.75
1807,1036.74,686.25
1808,1037.02,687.833
1809,1037.3,686.833
1810,1037.59,685.833
1811,1037.87,687.083
1812,1038.15,687.25
1813,1038.44,686.917
1814,1038.72,687.083
1815,1039,686.333
1816,1039.28,686.25
1817,1039.56,687.75
1818,1039.85,687.333
1819,1040.13,686.167
1820,1040.41,684.75
1821,1040.69,683.5
1822,1040.97,684.417
1823,1041.25,685.25
1824,1041.54,685.667
1825,1041.82,685.083
1826,1042.1,685.5
1827,1042.38,685.167
1828,1042.66,684.25
1829,1042.94,686.167
1830,1043.22,688.833
1831,1043.5,689.167
1832,1043.78,690.417
1833,1044.06,690.083
1834,1044.34,689.083
1835,1044.62,688.333
1836,1044.9,686.75
1837,1045.18,687.333
1838,1045.46,688.083
1839,1045.74,686.25
1840,1046.02,683.583
1841,1046.3,682.833
1842,1046.58,683.583
1843,1046.85,687.5
1844,1047.13,688.833
1845,1047.41,686.25
1846,1047.69,686.667
1847,1047.97,686.667
1848,1048.25,684.667
1849,1048.52,683.75
1850,1048.8,684.5
1851,1049.08,683.833
1852,1049.36,683.25
1853,1049.63,684.083
1854,1049.91,686.417
1855,1050.19,686.917
1856,1050.47,686
1857,1050.74,686.583
1858,1051.02,687.083
1859,1051.3,685.75
1860,1051.57,683.917
1861,1051.85,683.917
1862,1052.13,682.917
1863,1052.4,682.75
1864,1052.68,684
1865,1052.95,685.5
1866,1053.23,686.75
1867,1053.51,688.417
1868,1053.78,689.25
1869,1054.06,688.25
1870,1054.33,686.667
1871,1054.61,685.667
1872,1054.88,684.833
1873,1055.16,684.583
1874,1055.43,685
1875,1055.71,685.167
1876,1055.98,684.5
1877,1056.25,684.667
1878,1056.53,685.5
1879,1056.8,685.667
1880,1057.08,686.5
1881,1057.35,687.417
1882,1057.62,688.5
1883,1057.9,688.5
1884,1058.17,687.083
1885,1058.45,686.167
1886,1058.72,686.083
1887,1058.99,685.5
1888,1059.26,685
1889,1059.54,685.25
1890,1059.81,684.083
1891,1060.08,684.333
1892,1060.35,685.333
1893,1060.63,685.333
1894,1060.9,683.75
1895,1061.17,683.167
1896,1061.44,684
1897,1061.71,683.417
1898,1061.99,683.75
1899,1062.26,684.833
1900,1062.53,685.417
1901,1062.8,684.25
1902,1063.07,683.833
1903,1063.34,683.583
1904,1063.61,684.083
1905,1063.88,685.833
1906,1064.15,685.917
1907,1064.42,685.333
1908,1064.7,684.417
1909,1064.97,683.5
1910,1065.24,683.667
1911,1065.51,683.417
1912,1065.78,682.917
1913,1066.04,683.667
1914,1066.31,685.417
1915,1066.58,687.833
1916,1066.85,687.75
1917,1067.12,686
1918,1067.39,683.917
1919,1067.66,682.833
1920,1067.93,683.083
1921,1068.2,683.333
1922,1068.47,684.833
1923,1068.73,686.25
1924,1069,685.25
1925,1069.27,685.333
1926,1069.54,685.75
1927,1069.81,685.167
1928,1070.07,686.333
1929,1070.34,687.333
1930,1070.61,685.917
1931,1070.88,684.917
1932,1071.14,683.917
1933,1071.41,684.083
1934,1071.68,684.417
1935,1071.94,682.667
1936,1072.21,682.583
1937,1072.48,683.5
1938,1072.74,685.167
1939,1073.01,686.25
1940,1073.28,686.75
1941,1073.54,687.833
1942,1073.81,687.75
1943,1074.07,686.583
1944,1074.34,685.75
1945,1074.6,684.417
1946,1074.87,683.583
1947,1075.13,683.833
1948,1075.4,684.833
1949,1075.66,685.583
1950,1075.93,684.417
1951,1076.19,683.667
1952,1076.46,684.583
1953,1076.72,684.917
1954,1076.99,684.167
1955,1077.25,682.583
1956,1077.52,680.583
1957,1077.78,680.75
1958,1078.04,682.667
1959,1078.31,683.5
1960,1078.57,682.667
1961,1078.83,682.167
1962,1079.1,682.583
1963,1079.36,684.333
1964,1079.62,684.5
1965,1079.89,684.5
1966,1080.15,683.5
1967,1080.41,683.417
1968,1080.67,683.417
1969,1080.94,682.25
1970,1081.2,683.333
1971,1081.46,684.917
1972,1081.72,683.833
1973,1081.98,682.5
1974,1082.24,683.833
1975,1082.51,685.25
1976,1082.77,685.25
1977,1083.03,683.917
1978,1083.29,683.5
1979,1083.55,683.083
1980,1083.81,681.667
1981,1084.07,680.583
1982,1084.33,680.75
1983,1084.59,682.5
1984,1084.85,683.5
1985,1085.11,683.083
1986,1085.37,683.75
1987,1085.63,685.5
1988,1085.89,685.833
1989,1086.15,685.583
1990,1086.41,688.167
1991,1086.67,687.167
1992,1086.93,685.5
1993,1087.19,685.5
1994,1087.45,686.167
1995,1087.71,685.667
1996,1087.97,685.167
1997,1088.23,685.167
1998,1088.48,685.667
1999,1088.74,685.667
2000,1089,684.167
2001,1089.26,680.667
2002,1089.52,680.25
2003,1089.77,681.667
2004,1090.03,680.833
2005,1090.29,678.917
2006,1090.55,681
2007,1090.8,683.75
2008,1091.06,684.417
2009,1091.32,683.667
2010,1091.57,682.917
2011,1091.83,681.833
2012,1092.09,682.75
2013,1092.34,684.583
2014,1092.6,684.917
2015,1092.86,684.75
2016,1093.11,684.667
2017,1093.37,684.333
2018,1093.62,685.25
2019,1093.88,685.333
2020,1094.13,685.083
2021,1094.39,685.583
2022,1094.65,684.75
2023,1094.9,684.833
2024,1095.16,685.083
2025,1095.41,685.083
2026,1095.66,684.75
2027,1095.92,682.75
2028,1096.17,681.583
2029,1096.43,680.083
2030,1096.68,679.333
2031,1096.94,680.333
2032,1097.19,679.667
2033,1097.44,680.5
2034,1097.7,683.417
2035,1097.95,685.583
2036,1098.2,685.75
2037,1098.46,686.333
2038,1098.71,687.833
2039,1098.96,687
2040,1099.22,684.917
2041,1099.47,683.917
2042,1099.72,680.917
2043,1099.97,679.583
2044,1100.23,683
2045,1100.48,684.417
2046,1100.73,684.583
2047,1100.98,689.833
