time [µs]	HF [V]	NF [V]	TGC [dB]
0,0	0,458	0,129	0,157
0,1	0,536	0,412	0,315
0,2	0,601	0,242	-0,157
0,3	0,651	-0,372	-0,157
0,4	0,682	-0,831	0,787
0,5	0,696	-0,584	0,752
0,6	0,695	0,218	0,315
0,7	0,685	0,864	0,052
0,8	0,672	0,853	-0,157
0,9	0,662	0,351	0,000
1,0	0,663	-0,132	0,157
1,1	0,679	-0,322	0,350
1,2	0,711	-0,309	0,297
1,3	0,760	-0,206	0,000
1,4	0,821	0,056	0,000
1,5	0,887	0,524	0,000
1,6	0,951	0,961	0,157
1,7	1,002	0,971	0,157
1,8	1,033	0,396	0,157
1,9	1,037	-0,470	0,157
2,0	1,011	-1,117	0,157
2,1	0,954	-1,227	0,157
2,2	0,870	-0,878	0,157
2,3	0,767	-0,401	0,157
2,4	0,653	-0,084	0,000
2,5	0,540	0,012	0,157
2,6	0,437	0,007	0,157
2,7	0,355	0,024	0,000
2,8	0,300	0,058	0,157
2,9	0,274	0,007	0,157
3,0	0,278	-0,179	0,122
3,1	0,307	-0,407	0,157
3,2	0,355	-0,509	0,105
3,3	0,414	-0,392	0,140
3,4	0,473	-0,117	0,157
3,5	0,524	0,172	0,140
3,6	0,561	0,374	0,052
3,7	0,576	0,473	0,157
3,8	0,569	0,500	0,035
3,9	0,540	0,474	0,157
4,0	0,491	0,391	0,157
4,1	0,426	0,260	0,105
4,2	0,353	0,117	0,157
4,3	0,278	0,012	0,157
4,4	0,205	-0,029	0,105
4,5	0,141	-0,023	0,157
4,6	0,090	-0,009	0,140
4,7	0,052	-0,012	0,140
4,8	0,029	-0,022	0,157
4,9	0,019	-0,017	0,157
5,0	0,020	0,000	0,105
5,1	0,029	0,003	0,157
5,2	0,042	-0,022	0,105
5,3	0,057	-0,055	0,157
5,4	0,070	-0,067	0,122
5,5	0,079	-0,055	0,140
5,6	0,084	-0,046	0,140
5,7	0,084	-0,058	0,157
5,8	0,080	-0,074	0,122
5,9	0,072	-0,065	0,157
6,0	0,062	-0,030	0,087
6,1	0,051	0,005	0,140
6,2	0,041	0,018	0,140
6,3	0,032	0,010	0,157
6,4	0,025	-0,002	0,157
6,5	0,021	-0,013	0,157
6,6	0,020	-0,026	0,122
6,7	0,020	-0,038	0,157
6,8	0,023	-0,041	0,105
6,9	0,026	-0,026	0,157
7,0	0,030	-0,002	0,157
7,1	0,033	0,018	0,157
7,2	0,036	0,025	0,157
7,3	0,037	0,022	0,157
7,4	0,037	0,013	0,105
7,5	0,036	-0,003	0,157
7,6	0,034	-0,021	0,140
7,7	0,031	-0,033	0,140
7,8	0,028	-0,029	0,140
7,9	0,025	-0,012	0,157
8,0	0,021	0,005	0,157
8,1	0,019	0,013	0,140
8,2	0,017	0,014	0,105
8,3	0,016	0,011	0,122
8,4	0,015	0,008	0,140
8,5	0,015	0,001	0,157
8,6	0,015	-0,009	0,157
8,7	0,016	-0,017	0,140
8,8	0,016	-0,017	0,140
8,9	0,017	-0,010	0,157
9,0	0,018	0,000	0,105
9,1	0,019	0,005	0,157
9,2	0,019	0,008	0,087
9,3	0,019	0,010	0,122
9,4	0,019	0,015	0,070
9,5	0,019	0,019	0,157
9,6	0,019	0,019	0,122
9,7	0,019	0,016	0,157
9,8	0,020	0,009	0,157
9,9	0,020	-0,001	0,157
10,0	0,020	-0,010	0,157
10,1	0,020	-0,017	0,157
10,2	0,020	-0,018	0,122
10,3	0,021	-0,012	0,157
10,4	0,021	-0,001	0,087
10,5	0,021	0,013	0,105
10,6	0,021	0,024	0,052
10,7	0,021	0,026	0,105
10,8	0,021	0,018	0,070
10,9	0,021	0,005	0,157
11,0	0,022	-0,007	0,122
11,1	0,022	-0,014	0,157
11,2	0,022	-0,015	0,157
11,3	0,022	-0,013	0,157
11,4	0,022	-0,008	0,105
11,5	0,021	0,000	0,122
11,6	0,020	0,013	0,087
11,7	0,019	0,022	0,157
11,8	0,017	0,022	0,017
11,9	0,015	0,013	0,157
12,0	0,012	0,003	0,157
12,1	0,010	-0,003	0,157
12,2	0,009	-0,005	0,157
12,3	0,008	-0,007	0,157
12,4	0,008	-0,010	0,157
12,5	0,008	-0,010	0,157
12,6	0,010	-0,005	0,140
12,7	0,012	0,004	0,157
12,8	0,014	0,009	0,157
12,9	0,016	0,007	0,157
13,0	0,017	0,001	0,140
13,1	0,017	-0,002	0,140
13,2	0,014	-0,001	0,157
13,3	0,010	0,002	0,157
13,4	0,004	0,002	0,122
13,5	0,004	0,000	0,140
13,6	0,012	0,000	0,157
13,7	0,019	0,002	0,157
13,8	0,024	0,004	0,175
13,9	0,024	0,005	0,087
14,0	0,017	0,006	1,277
14,1	0,001	0,002	3,482
14,2	0,025	-0,014	5,197
14,3	0,062	-0,037	6,299
14,4	0,110	-0,034	6,929
14,5	0,169	0,034	7,402
14,6	0,237	0,165	7,577
14,7	0,311	0,272	7,734
14,8	0,390	0,228	7,874
14,9	0,468	-0,026	8,031
15,0	0,544	-0,394	8,049
15,1	0,613	-0,655	8,136
15,2	0,673	-0,617	8,189
15,3	0,721	-0,262	8,189
15,4	0,756	0,237	8,189
15,5	0,777	0,634	8,276
15,6	0,783	0,768	8,311
15,7	0,777	0,632	8,346
15,8	0,758	0,326	8,346
15,9	0,730	-0,035	8,486
16,0	0,694	-0,360	8,504
16,1	0,653	-0,577	8,504
16,2	0,608	-0,624	8,504
16,3	0,561	-0,477	8,591
16,4	0,514	-0,196	8,556
16,5	0,467	0,097	8,661
16,6	0,423	0,290	8,661
16,7	0,380	0,347	8,661
16,8	0,341	0,311	8,661
16,9	0,304	0,236	8,819
17,0	0,270	0,140	8,819
17,1	0,240	0,018	8,819
17,2	0,212	-0,106	8,819
17,3	0,188	-0,183	8,959
17,4	0,167	-0,179	8,976
17,5	0,148	-0,120	8,976
17,6	0,133	-0,063	8,976
17,7	0,120	-0,035	9,046
17,8	0,110	-0,014	9,011
17,9	0,102	0,028	9,134
18,0	0,096	0,085	9,134
18,1	0,091	0,115	9,134
18,2	0,088	0,093	9,151
18,3	0,085	0,040	9,291
18,4	0,083	-0,005	9,291
18,5	0,081	-0,028	9,291
18,6	0,078	-0,044	9,291
18,7	0,075	-0,064	9,431
18,8	0,071	-0,073	9,449
18,9	0,067	-0,052	9,449
19,0	0,062	-0,004	9,449
19,1	0,056	0,038	9,571
19,2	0,051	0,051	9,606
19,3	0,045	0,038	9,606
19,4	0,039	0,020	9,606
19,5	0,033	0,011	9,606
19,6	0,028	0,005	9,641
19,7	0,024	-0,008	9,764
19,8	0,020	-0,022	9,764
19,9	0,017	-0,026	9,764
20,0	0,016	-0,016	9,781
20,1	0,015	-0,003	9,921
20,2	0,015	-0,001	9,921
20,3	0,016	-0,009	9,921
20,4	0,018	-0,014	9,921
20,5	0,020	-0,007	10,079
20,6	0,023	0,007	10,079
20,7	0,027	0,020	10,079
20,8	0,030	0,026	10,079
20,9	0,034	0,029	10,201
21,0	0,038	0,032	10,236
21,1	0,041	0,028	10,236
21,2	0,045	0,010	10,236
21,3	0,048	-0,019	10,289
21,4	0,050	-0,046	10,376
21,5	0,052	-0,055	10,394
21,6	0,054	-0,043	10,394
21,7	0,055	-0,018	10,394
21,8	0,055	0,009	10,411
21,9	0,055	0,031	10,534
22,0	0,054	0,047	10,551
22,1	0,054	0,054	10,551
22,2	0,053	0,047	10,551
22,3	0,051	0,026	10,639
22,4	0,050	-0,004	10,709
22,5	0,049	-0,030	10,709
22,6	0,047	-0,043	10,709
22,7	0,046	-0,041	10,779
22,8	0,045	-0,026	10,779
22,9	0,044	0,000	10,866
23,0	0,043	0,027	10,866
23,1	0,042	0,042	10,866
23,2	0,041	0,039	10,901
23,3	0,040	0,018	11,024
23,4	0,040	-0,010	11,024
23,5	0,039	-0,031	11,041
23,6	0,039	-0,037	11,059
23,7	0,039	-0,032	11,181
23,8	0,039	-0,019	11,199
23,9	0,040	-0,001	11,181
24,0	0,041	0,019	11,199
24,1	0,043	0,037	11,304
24,2	0,046	0,047	11,304
24,3	0,048	0,046	11,339
24,4	0,052	0,034	11,339
24,5	0,056	0,013	11,391
24,6	0,060	-0,014	11,444
24,7	0,064	-0,045	11,496
24,8	0,068	-0,067	11,496
24,9	0,072	-0,067	11,496
25,0	0,076	-0,039	11,496
25,1	0,078	0,008	11,654
25,2	0,080	0,054	11,654
25,3	0,081	0,080	11,654
25,4	0,081	0,078	11,654
25,5	0,080	0,052	11,724
25,6	0,078	0,012	11,811
25,7	0,075	-0,030	11,811
25,8	0,071	-0,060	11,811
25,9	0,068	-0,067	11,846
26,0	0,064	-0,048	11,934
26,1	0,061	-0,012	11,969
26,2	0,058	0,026	11,969
26,3	0,056	0,050	11,986
26,4	0,054	0,055	12,038
26,5	0,053	0,044	12,126
26,6	0,053	0,023	12,126
26,7	0,053	-0,005	12,126
26,8	0,054	-0,032	12,126
26,9	0,055	-0,049	12,283
27,0	0,055	-0,050	12,283
27,1	0,055	-0,034	12,283
27,2	0,053	-0,008	12,283
27,3	0,051	0,018	12,406
27,4	0,048	0,038	12,423
27,5	0,044	0,048	12,441
27,6	0,039	0,046	12,441
27,7	0,034	0,030	12,511
27,8	0,030	0,008	12,581
27,9	0,027	-0,008	12,598
28,0	0,027	-0,009	12,598
28,1	0,029	0,002	12,633
28,2	0,036	0,009	12,668
28,3	0,047	-0,005	12,756
28,4	0,063	-0,044	12,756
28,5	0,084	-0,091	12,756
28,6	0,111	-0,119	12,756
28,7	0,143	-0,105	12,913
28,8	0,178	-0,042	12,913
28,9	0,215	0,060	12,913
29,0	0,254	0,177	12,913
29,1	0,292	0,272	12,983
29,2	0,327	0,298	13,071
29,3	0,358	0,219	13,071
29,4	0,382	0,041	13,071
29,5	0,398	-0,182	13,123
29,6	0,405	-0,358	13,228
29,7	0,404	-0,413	13,228
29,8	0,393	-0,327	13,228
29,9	0,374	-0,142	13,246
30,0	0,348	0,061	13,228
30,1	0,317	0,212	13,386
30,2	0,283	0,274	13,386
30,3	0,249	0,253	13,386
30,4	0,216	0,179	13,386
30,5	0,187	0,092	13,543
30,6	0,162	0,024	13,543
30,7	0,144	-0,011	13,543
30,8	0,132	-0,024	13,543
30,9	0,127	-0,036	13,578
31,0	0,126	-0,067	13,666
31,1	0,130	-0,114	13,701
31,2	0,136	-0,153	13,701
31,3	0,143	-0,160	13,701
31,4	0,148	-0,122	13,718
31,5	0,152	-0,051	13,858
31,6	0,153	0,029	13,858
31,7	0,150	0,093	13,858
31,8	0,143	0,128	13,893
31,9	0,133	0,132	13,981
32,0	0,121	0,108	14,016
32,1	0,108	0,066	14,016
32,2	0,094	0,022	14,016
32,3	0,082	-0,009	14,103
32,4	0,071	-0,021	14,121
32,5	0,063	-0,020	14,173
32,6	0,057	-0,019	14,173
32,7	0,053	-0,029	14,173
32,8	0,052	-0,048	14,313
32,9	0,052	-0,065	14,331
33,0	0,054	-0,070	14,331
33,1	0,056	-0,058	14,331
33,2	0,058	-0,032	14,331
33,3	0,060	0,000	14,488
33,4	0,061	0,029	14,488
33,5	0,063	0,047	14,488
33,6	0,064	0,054	14,488
33,7	0,065	0,052	14,593
33,8	0,067	0,050	14,628
33,9	0,070	0,050	14,646
34,0	0,074	0,049	14,646
34,1	0,079	0,036	14,681
34,2	0,085	0,006	14,698
34,3	0,092	-0,038	14,803
34,4	0,098	-0,080	14,803
34,5	0,103	-0,106	14,803
34,6	0,106	-0,105	14,803
34,7	0,108	-0,077	14,961
34,8	0,107	-0,030	14,961
34,9	0,103	0,025	14,961
35,0	0,097	0,070	14,961
35,1	0,088	0,090	15,118
35,2	0,078	0,080	15,118
35,3	0,067	0,049	15,118
35,4	0,055	0,015	15,118
35,5	0,045	-0,010	15,188
35,6	0,035	-0,021	15,258
35,7	0,028	-0,019	15,276
35,8	0,023	-0,009	15,276
35,9	0,021	0,004	15,276
36,0	0,021	0,011	15,398
36,1	0,023	0,007	15,433
36,2	0,027	-0,010	15,433
36,3	0,032	-0,032	15,433
36,4	0,038	-0,048	15,433
36,5	0,043	-0,049	15,591
36,6	0,048	-0,035	15,591
36,7	0,051	-0,011	15,591
36,8	0,054	0,014	15,608
36,9	0,054	0,033	15,713
37,0	0,054	0,044	15,748
37,1	0,052	0,047	15,748
37,2	0,049	0,042	15,748
37,3	0,046	0,032	15,801
37,4	0,043	0,021	15,853
37,5	0,040	0,011	15,906
37,6	0,037	0,001	15,906
37,7	0,034	-0,010	15,941
37,8	0,033	-0,021	15,958
37,9	0,032	-0,031	16,063
38,0	0,031	-0,037	16,063
38,1	0,031	-0,035	16,063
38,2	0,031	-0,027	16,063
38,3	0,031	-0,018	16,203
38,4	0,032	-0,010	16,220
38,5	0,032	-0,001	16,220
38,6	0,033	0,009	16,220
38,7	0,033	0,019	16,273
38,8	0,033	0,026	16,378
38,9	0,034	0,030	16,378
39,0	0,033	0,030	16,378
39,1	0,033	0,028	16,413
39,2	0,032	0,021	16,448
39,3	0,031	0,010	16,535
39,4	0,029	-0,004	16,535
39,5	0,027	-0,016	16,535
39,6	0,024	-0,023	16,535
39,7	0,022	-0,024	16,675
39,8	0,019	-0,021	16,693
39,9	0,016	-0,013	16,693
40,0	0,014	-0,003	16,693
40,1	0,012	0,005	16,798
40,2	0,012	0,007	16,833
40,3	0,012	0,004	16,850
40,4	0,013	-0,001	16,850
40,5	0,015	-0,004	16,850
40,6	0,018	0,000	16,973
40,7	0,022	0,011	17,008
40,8	0,027	0,025	17,008
40,9	0,032	0,036	17,025
41,0	0,037	0,039	17,008
41,1	0,043	0,031	17,165
41,2	0,048	0,014	17,165
41,3	0,053	-0,009	17,165
41,4	0,058	-0,034	17,165
41,5	0,063	-0,056	17,305
41,6	0,068	-0,069	17,323
41,7	0,073	-0,065	17,323
41,8	0,078	-0,044	17,323
41,9	0,084	-0,011	17,358
42,0	0,089	0,028	17,410
42,1	0,094	0,065	17,480
42,2	0,099	0,093	17,480
42,3	0,103	0,098	17,480
42,4	0,106	0,071	17,533
42,5	0,108	0,014	17,638
42,6	0,108	-0,050	17,638
42,7	0,106	-0,094	17,638
42,8	0,102	-0,102	17,638
42,9	0,096	-0,075	17,778
43,0	0,088	-0,028	17,795
43,1	0,078	0,021	17,795
43,2	0,068	0,054	17,795
43,3	0,057	0,062	17,935
43,4	0,047	0,044	17,953
43,5	0,037	0,015	17,953
43,6	0,029	-0,006	17,953
43,7	0,023	-0,010	17,970
43,8	0,019	0,001	17,988
43,9	0,017	0,013	18,110
44,0	0,018	0,019	18,110
44,1	0,020	0,018	18,110
44,2	0,025	0,012	18,145
44,3	0,030	-0,001	18,268
44,4	0,035	-0,018	18,268
44,5	0,041	-0,035	18,268
44,6	0,045	-0,044	18,268
44,7	0,049	-0,042	18,355
44,8	0,050	-0,031	18,425
44,9	0,050	-0,013	18,425
45,0	0,049	0,010	18,425
45,1	0,046	0,032	18,513
45,2	0,042	0,047	18,565
45,3	0,037	0,047	18,583
45,4	0,033	0,032	18,583
45,5	0,030	0,010	18,583
45,6	0,028	-0,008	18,600
45,7	0,027	-0,013	18,740
45,8	0,029	-0,003	18,740
45,9	0,032	0,015	18,740
46,0	0,038	0,028	18,740
46,1	0,044	0,022	18,898
46,2	0,052	-0,006	18,898
46,3	0,060	-0,044	18,898
46,4	0,068	-0,073	18,898
46,5	0,075	-0,079	18,968
46,6	0,081	-0,058	19,038
46,7	0,085	-0,016	19,055
46,8	0,088	0,033	19,055
46,9	0,089	0,073	19,090
47,0	0,088	0,088	19,143
47,1	0,087	0,073	19,213
47,2	0,084	0,033	19,213
47,3	0,081	-0,016	19,213
47,4	0,078	-0,055	19,213
47,5	0,075	-0,069	19,370
47,6	0,072	-0,053	19,370
47,7	0,070	-0,014	19,370
47,8	0,068	0,031	19,370
47,9	0,067	0,062	19,493
48,0	0,066	0,068	19,528
48,1	0,065	0,048	19,528
48,2	0,064	0,012	19,528
48,3	0,062	-0,026	19,528
48,4	0,061	-0,052	19,580
48,5	0,060	-0,062	19,685
48,6	0,058	-0,056	19,685
48,7	0,057	-0,042	19,703
48,8	0,057	-0,026	19,738
48,9	0,057	-0,013	19,843
49,0	0,058	0,002	19,843
49,1	0,060	0,022	19,843
49,2	0,063	0,046	19,843
49,3	0,067	0,066	19,965
49,4	0,072	0,074	19,965
49,5	0,078	0,065	20,000
49,6	0,084	0,038	20,000
49,7	0,091	-0,003	20,122
49,8	0,098	-0,054	20,140
49,9	0,105	-0,097	20,157
50,0	0,111	-0,113	20,157
50,1	0,116	-0,093	20,227
50,2	0,121	-0,043	20,280
50,3	0,124	0,019	20,315
50,4	0,126	0,075	20,315
50,5	0,127	0,113	20,315
50,6	0,127	0,123	20,350
50,7	0,125	0,098	20,455
50,8	0,121	0,043	20,472
50,9	0,116	-0,024	20,472
51,0	0,110	-0,077	20,507
51,1	0,103	-0,100	20,595
51,2	0,094	-0,093	20,630
51,3	0,086	-0,065	20,630
51,4	0,077	-0,029	20,630
51,5	0,068	0,006	20,665
51,6	0,059	0,032	20,700
51,7	0,051	0,043	20,787
51,8	0,044	0,041	20,770
51,9	0,038	0,033	20,822
52,0	0,033	0,025	20,927
52,1	0,029	0,019	20,945
52,2	0,026	0,013	20,945
52,3	0,024	0,006	20,945
52,4	0,023	-0,003	20,980
52,5	0,022	-0,012	21,102
52,6	0,021	-0,020	21,102
52,7	0,020	-0,024	21,102
52,8	0,019	-0,021	21,102
52,9	0,018	-0,012	21,120
53,0	0,017	-0,003	21,190
53,1	0,016	0,003	21,260
53,2	0,015	0,007	21,260
53,3	0,013	0,010	21,260
53,4	0,012	0,010	21,347
53,5	0,011	0,004	21,400
53,6	0,010	-0,007	21,417
53,7	0,009	-0,013	21,417
53,8	0,009	-0,009	21,452
53,9	0,009	-0,002	21,575
54,0	0,009	0,002	21,575
54,1	0,009	0,001	21,575
54,2	0,010	0,002	21,575
54,3	0,010	0,006	21,645
54,4	0,011	0,011	21,715
54,5	0,012	0,013	21,732
54,6	0,013	0,011	21,732
54,7	0,013	0,009	21,750
54,8	0,014	0,005	21,837
54,9	0,015	-0,004	21,890
55,0	0,017	-0,015	21,890
55,1	0,018	-0,020	21,890
55,2	0,020	-0,015	21,925
55,3	0,023	-0,004	22,012
55,4	0,026	0,010	22,047
55,5	0,029	0,022	22,047
55,6	0,033	0,030	22,047
55,7	0,037	0,030	22,135
55,8	0,041	0,016	22,170
55,9	0,045	-0,009	22,205
56,0	0,049	-0,034	22,205
56,1	0,053	-0,050	22,275
56,2	0,055	-0,054	22,345
56,3	0,057	-0,047	22,310
56,4	0,058	-0,029	22,362
56,5	0,058	-0,001	22,380
56,6	0,057	0,028	22,362
56,7	0,055	0,048	22,485
56,8	0,052	0,051	22,520
56,9	0,049	0,043	22,520
57,0	0,045	0,031	22,520
57,1	0,040	0,016	22,660
57,2	0,035	-0,002	22,677
57,3	0,031	-0,018	22,677
57,4	0,026	-0,024	22,677
57,5	0,022	-0,020	22,782
57,6	0,019	-0,013	22,817
57,7	0,016	-0,011	22,835
57,8	0,014	-0,013	22,835
57,9	0,012	-0,013	22,852
58,0	0,011	-0,010	22,887
58,1	0,011	-0,008	22,992
58,2	0,011	-0,006	22,992
58,3	0,011	-0,001	22,992
58,4	0,012	0,008	23,045
58,5	0,014	0,013	23,132
58,6	0,015	0,009	23,150
58,7	0,017	0,003	23,150
58,8	0,019	0,005	23,150
58,9	0,020	0,016	23,290
59,0	0,022	0,026	23,307
59,1	0,023	0,026	23,307
59,2	0,025	0,017	23,307
59,3	0,026	0,007	23,360
59,4	0,026	-0,001	23,447
59,5	0,027	-0,011	23,465
59,6	0,027	-0,023	23,465
59,7	0,027	-0,029	23,482
59,8	0,027	-0,026	23,535
59,9	0,027	-0,018	23,622
60,0	0,026	-0,012	23,622
60,1	0,026	-0,012	23,622
60,2	0,026	-0,010	23,622
60,3	0,026	-0,001	23,692
60,4	0,025	0,012	23,762
60,5	0,025	0,024	23,780
60,6	0,024	0,029	23,780
60,7	0,023	0,027	23,797
60,8	0,023	0,020	23,867
60,9	0,022	0,010	23,937
61,0	0,022	0,002	23,937
61,1	0,022	-0,002	23,972
61,2	0,022	-0,006	23,990
61,3	0,023	-0,016	24,094
61,4	0,024	-0,024	24,094
61,5	0,025	-0,020	24,094
61,6	0,028	0,002	24,094
61,7	0,030	0,026	24,234
61,8	0,033	0,033	24,234
61,9	0,036	0,017	24,252
62,0	0,039	-0,009	24,252
62,1	0,042	-0,031	24,322
62,2	0,045	-0,041	24,392
62,3	0,047	-0,042	24,409
62,4	0,049	-0,033	24,409
62,5	0,050	-0,011	24,409
62,6	0,051	0,020	24,444
62,7	0,051	0,044	24,567
62,8	0,050	0,052	24,567
62,9	0,048	0,044	24,567
63,0	0,046	0,030	24,567
63,1	0,044	0,017	24,724
63,2	0,041	0,003	24,724
63,3	0,038	-0,013	24,724
63,4	0,036	-0,024	24,724
63,5	0,033	-0,029	24,777
63,6	0,031	-0,029	24,864
63,7	0,030	-0,029	24,882
63,8	0,029	-0,028	24,882
63,9	0,028	-0,019	24,899
64,0	0,028	-0,004	24,899
64,1	0,029	0,012	25,039
64,2	0,030	0,021	25,039
64,3	0,032	0,026	25,039
64,4	0,034	0,029	25,057
64,5	0,036	0,030	25,197
64,6	0,038	0,025	25,197
64,7	0,040	0,009	25,214
64,8	0,042	-0,012	25,232
64,9	0,043	-0,033	25,354
65,0	0,043	-0,044	25,354
65,1	0,043	-0,042	25,354
65,2	0,042	-0,025	25,354
65,3	0,041	0,001	25,424
65,4	0,040	0,025	25,494
65,5	0,038	0,038	25,512
65,6	0,037	0,037	25,512
65,7	0,036	0,028	25,529
65,8	0,035	0,020	25,512
65,9	0,035	0,014	25,669
66,0	0,035	0,008	25,669
66,1	0,036	0,001	25,669
66,2	0,037	-0,010	25,669
66,3	0,038	-0,025	25,827
66,4	0,039	-0,040	25,827
66,5	0,040	-0,047	25,827
66,6	0,041	-0,041	25,827
66,7	0,041	-0,026	25,914
66,8	0,040	-0,011	25,949
66,9	0,038	-0,001	25,984
67,0	0,036	0,009	25,984
67,1	0,033	0,022	25,984
67,2	0,030	0,032	26,037
67,3	0,027	0,031	26,142
67,4	0,024	0,020	26,142
67,5	0,021	0,009	26,142
67,6	0,019	0,008	26,194
67,7	0,017	0,010	26,282
67,8	0,016	0,008	26,299
67,9	0,016	0,000	26,317
68,0	0,017	-0,005	26,317
68,1	0,019	-0,006	26,439
68,2	0,021	-0,009	26,457
68,3	0,024	-0,019	26,457
68,4	0,028	-0,031	26,457
68,5	0,031	-0,034	26,509
68,6	0,034	-0,026	26,527
68,7	0,037	-0,012	26,614
68,8	0,039	0,004	26,614
68,9	0,041	0,022	26,614
69,0	0,042	0,038	26,614
69,1	0,043	0,044	26,737
69,2	0,042	0,032	26,772
69,3	0,041	0,009	26,772
69,4	0,039	-0,012	26,772
69,5	0,037	-0,022	26,877
69,6	0,035	-0,025	26,912
69,7	0,032	-0,030	26,929
69,8	0,029	-0,032	26,929
69,9	0,027	-0,025	26,947
70,0	0,024	-0,006	26,999
70,1	0,023	0,013	27,087
70,2	0,022	0,020	27,087
70,3	0,023	0,016	27,087
70,4	0,024	0,011	27,139
70,5	0,026	0,014	27,244
70,6	0,028	0,022	27,244
70,7	0,031	0,025	27,244
70,8	0,034	0,014	27,244
70,9	0,037	-0,008	27,349
71,0	0,039	-0,030	27,402
71,1	0,040	-0,043	27,402
71,2	0,041	-0,042	27,402
71,3	0,041	-0,027	27,472
71,4	0,039	-0,005	27,507
71,5	0,037	0,015	27,559
71,6	0,034	0,028	27,559
71,7	0,031	0,032	27,559
71,8	0,028	0,027	27,629
71,9	0,025	0,016	27,717
72,0	0,023	0,004	27,717
72,1	0,021	-0,003	27,717
72,2	0,020	-0,007	27,734
72,3	0,020	-0,010	27,857
72,4	0,020	-0,015	27,874
72,5	0,021	-0,015	27,874
72,6	0,023	-0,005	27,874
72,7	0,024	0,015	27,997
72,8	0,025	0,031	28,014
72,9	0,026	0,032	28,031
73,0	0,026	0,017	28,031
73,1	0,026	-0,002	28,049
73,2	0,026	-0,014	28,084
73,3	0,025	-0,018	28,189
73,4	0,024	-0,020	28,189
73,5	0,024	-0,020	28,189
73,6	0,024	-0,018	28,189
73,7	0,025	-0,013	28,346
73,8	0,026	-0,012	28,346
73,9	0,028	-0,016	28,346
74,0	0,030	-0,016	28,346
74,1	0,032	-0,001	28,416
74,2	0,034	0,026	28,486
74,3	0,036	0,047	28,504
74,4	0,038	0,047	28,504
74,5	0,039	0,027	28,539
74,6	0,039	0,004	28,609
74,7	0,038	-0,011	28,661
74,8	0,037	-0,017	28,661
74,9	0,034	-0,021	28,661
75,0	0,031	-0,024	28,661
75,1	0,028	-0,023	28,819
75,2	0,024	-0,018	28,819
75,3	0,019	-0,013	28,819
75,4	0,015	-0,010	28,819
75,5	0,012	-0,004	28,959
75,6	0,009	0,006	28,976
75,7	0,007	0,013	28,976
75,8	0,006	0,012	28,976
75,9	0,005	0,006	29,046
76,0	0,007	0,003	29,134
76,1	0,009	0,005	29,134
76,2	0,012	0,006	29,134
76,3	0,016	0,003	29,134
76,4	0,021	0,001	29,134
76,5	0,026	0,012	29,291
76,6	0,031	0,030	29,291
76,7	0,035	0,038	29,291
76,8	0,039	0,023	29,291
76,9	0,042	-0,009	29,431
77,0	0,045	-0,038	29,449
77,1	0,046	-0,050	29,449
77,2	0,047	-0,047	29,449
77,3	0,046	-0,037	29,536
77,4	0,045	-0,024	29,589
77,5	0,044	-0,010	29,606
77,6	0,042	0,001	29,624
77,7	0,041	0,009	29,659
77,8	0,039	0,016	29,606
77,9	0,038	0,030	29,606
78,0	0,037	0,044	29,606
78,1	0,037	0,045	29,606
78,2	0,037	0,026	29,606
78,3	0,037	-0,003	29,606
78,4	0,037	-0,022	29,606
78,5	0,038	-0,025	29,606
78,6	0,038	-0,024	29,606
78,7	0,039	-0,030	29,606
78,8	0,039	-0,038	29,606
78,9	0,040	-0,036	29,606
79,0	0,041	-0,017	29,606
79,1	0,041	0,007	29,606
79,2	0,041	0,024	29,606
79,3	0,041	0,032	29,606
79,4	0,041	0,035	29,606
79,5	0,040	0,033	29,606
79,6	0,039	0,023	29,606
79,7	0,037	0,001	29,606
79,8	0,034	-0,023	29,606
79,9	0,031	-0,036	29,606
80,0	0,027	-0,031	29,606
80,1	0,023	-0,013	29,606
80,2	0,020	0,004	29,606
80,3	0,016	0,008	29,606
80,4	0,013	0,002	29,606
80,5	0,010	-0,003	29,606
80,6	0,009	0,000	29,606
80,7	0,008	0,009	29,606
80,8	0,008	0,012	29,606
80,9	0,009	0,006	29,606
81,0	0,010	-0,002	29,606
81,1	0,012	-0,005	29,606
81,2	0,015	-0,004	29,606
81,3	0,017	-0,010	29,606
81,4	0,019	-0,019	29,606
81,5	0,020	-0,021	29,606
81,6	0,021	-0,006	29,606
81,7	0,021	0,015	29,606
81,8	0,020	0,025	29,606
81,9	0,019	0,017	29,606
82,0	0,017	0,003	29,606
82,1	0,015	-0,004	29,606
82,2	0,013	-0,005	29,606
82,3	0,011	-0,005	29,606
82,4	0,010	-0,007	29,606
82,5	0,009	-0,004	29,606
82,6	0,008	0,005	29,606
82,7	0,009	0,013	29,606
82,8	0,010	0,012	29,606
82,9	0,012	0,005	29,606
83,0	0,014	-0,002	29,606
83,1	0,017	-0,007	29,606
83,2	0,019	-0,011	29,606
83,3	0,022	-0,017	29,606
83,4	0,023	-0,022	29,606
83,5	0,025	-0,021	29,606
83,6	0,025	-0,015	29,606
83,7	0,025	-0,007	29,606
83,8	0,025	0,004	29,606
83,9	0,024	0,016	29,606
84,0	0,022	0,025	29,606
84,1	0,021	0,026	29,606
84,2	0,020	0,020	29,606
84,3	0,019	0,012	29,606
84,4	0,019	0,008	29,606
84,5	0,020	0,007	29,606
84,6	0,022	0,005	29,606
84,7	0,024	0,000	29,606
84,8	0,027	-0,008	29,606
84,9	0,030	-0,020	29,606
85,0	0,033	-0,034	29,606
85,1	0,036	-0,040	29,606
85,2	0,039	-0,030	29,606
85,3	0,041	-0,006	29,606
85,4	0,042	0,018	29,606
85,5	0,042	0,032	29,606
85,6	0,041	0,037	29,606
85,7	0,040	0,037	29,606
85,8	0,038	0,030	29,606
85,9	0,035	0,014	29,606
86,0	0,033	-0,007	29,606
86,1	0,031	-0,022	29,606
86,2	0,029	-0,025	29,606
86,3	0,028	-0,022	29,606
86,4	0,028	-0,020	29,606
86,5	0,028	-0,018	29,606
86,6	0,029	-0,007	29,606
86,7	0,030	0,013	29,606
86,8	0,032	0,031	29,606
86,9	0,033	0,033	29,606
87,0	0,033	0,019	29,606
87,1	0,033	-0,005	29,606
87,2	0,033	-0,025	29,606
87,3	0,031	-0,032	29,606
87,4	0,029	-0,021	29,606
87,5	0,027	0,002	29,606
87,6	0,024	0,021	29,606
87,7	0,021	0,024	29,606
87,8	0,019	0,013	29,606
87,9	0,017	0,003	29,606
88,0	0,016	0,002	29,606
88,1	0,016	0,004	29,606
88,2	0,017	-0,002	29,606
88,3	0,019	-0,016	29,606
88,4	0,022	-0,024	29,606
88,5	0,025	-0,023	29,606
88,6	0,029	-0,017	29,606
88,7	0,032	-0,012	29,606
88,8	0,035	-0,001	29,606
88,9	0,037	0,020	29,606
89,0	0,037	0,041	29,606
89,1	0,037	0,046	29,606
89,2	0,035	0,027	29,606
89,3	0,033	0,001	29,606
89,4	0,029	-0,014	29,606
89,5	0,025	-0,016	29,606
89,6	0,021	-0,013	29,606
89,7	0,016	-0,011	29,606
89,8	0,012	-0,008	29,606
89,9	0,009	-0,003	29,606
90,0	0,006	0,000	29,606
90,1	0,004	0,000	29,606
90,2	0,004	0,001	29,606
90,3	0,004	0,006	29,606
90,4	0,004	0,008	29,606
90,5	0,006	0,003	29,606
90,6	0,007	-0,007	29,606
90,7	0,010	-0,010	29,606
90,8	0,012	-0,002	29,606
90,9	0,014	0,008	29,606
91,0	0,016	0,011	29,606
91,1	0,018	0,012	29,606
91,2	0,020	0,016	29,606
91,3	0,021	0,020	29,606
91,4	0,022	0,013	29,589
91,5	0,022	-0,004	29,606
91,6	0,022	-0,016	29,571
91,7	0,022	-0,015	29,606
91,8	0,022	-0,009	29,606
91,9	0,021	-0,013	29,606
92,0	0,021	-0,024	29,606
92,1	0,020	-0,026	29,606
92,2	0,020	-0,013	29,589
92,3	0,019	0,008	29,606
92,4	0,019	0,020	29,606
92,5	0,020	0,019	29,606
92,6	0,020	0,009	29,606
92,7	0,021	-0,001	29,606
92,8	0,022	-0,007	29,606
92,9	0,024	-0,001	29,606
93,0	0,025	0,016	29,606
93,1	0,025	0,031	29,606
93,2	0,026	0,025	29,606
93,3	0,025	-0,003	29,606
93,4	0,025	-0,028	29,606
93,5	0,023	-0,028	29,606
93,6	0,022	-0,006	29,589
93,7	0,019	0,011	29,606
93,8	0,017	0,007	29,606
93,9	0,015	-0,006	29,606
94,0	0,013	-0,010	29,606
94,1	0,011	0,000	29,606
94,2	0,011	0,009	29,606
94,3	0,010	0,008	29,606
94,4	0,011	0,000	29,606
94,5	0,012	-0,008	29,606
94,6	0,013	-0,012	29,589
94,7	0,015	-0,012	29,606
94,8	0,017	-0,005	29,606
94,9	0,018	0,009	29,606
95,0	0,020	0,021	29,606
95,1	0,020	0,021	29,571
95,2	0,021	0,007	29,606
95,3	0,020	-0,010	29,606
95,4	0,020	-0,018	29,571
95,5	0,019	-0,016	29,606
95,6	0,017	-0,010	29,589
95,7	0,016	-0,003	29,606
95,8	0,014	0,005	29,606
95,9	0,013	0,012	29,606
96,0	0,012	0,012	29,589
96,1	0,011	0,008	29,606
96,2	0,011	0,003	29,589
96,3	0,011	0,001	29,606
96,4	0,011	0,000	29,606
96,5	0,011	-0,005	29,606
96,6	0,012	-0,012	29,606
96,7	0,012	-0,015	29,606
96,8	0,012	-0,012	29,606
96,9	0,011	-0,007	29,606
97,0	0,011	-0,001	29,606
97,1	0,010	0,006	29,606
97,2	0,010	0,010	29,606
97,3	0,009	0,006	29,606
97,4	0,008	-0,003	29,606
97,5	0,008	-0,007	29,606
97,6	0,008	-0,002	29,606
97,7	0,008	0,006	29,606
97,8	0,009	0,006	29,606
97,9	0,010	0,001	29,606
98,0	0,010	0,000	29,606
98,1	0,011	0,009	29,606
98,2	0,012	0,015	29,589
98,3	0,013	0,007	29,606
98,4	0,014	-0,012	29,606
98,5	0,014	-0,022	29,606
98,6	0,015	-0,014	29,606
98,7	0,015	0,001	29,606
98,8	0,015	0,006	29,589
98,9	0,015	-0,002	29,606
99,0	0,015	-0,006	29,606
99,1	0,016	0,002	29,606
99,2	0,016	0,017	29,571
99,3	0,017	0,021	29,606
99,4	0,017	0,012	29,571
99,5	0,018	-0,001	29,606
99,6	0,018	-0,008	29,606
99,7	0,018	-0,010	29,606
99,8	0,018	-0,013	29,589
99,9	0,018	-0,018	29,606
100,0	0,018	-0,020	29,589
100,1	0,017	-0,014	29,606
100,2	0,017	-0,003	29,589
100,3	0,016	0,007	29,606
100,4	0,016	0,013	29,606
100,5	0,015	0,014	29,606
100,6	0,016	0,013	29,606
100,7	0,016	0,011	29,606
100,8	0,017	0,007	29,589
100,9	0,018	0,003	29,606
101,0	0,019	-0,001	29,554
101,1	0,020	-0,006	29,606
101,2	0,021	-0,014	29,606
101,3	0,022	-0,023	29,606
101,4	0,022	-0,028	29,606
101,5	0,022	-0,022	29,606
101,6	0,022	-0,007	29,606
101,7	0,021	0,011	29,606
101,8	0,019	0,020	29,571
101,9	0,018	0,015	29,606
102,0	0,017	0,004	29,589
102,1	0,016	-0,004	29,606
102,2	0,015	-0,004	29,589
102,3	0,014	0,003	29,606
102,4	0,014	0,011	29,606
102,5	0,014	0,015	29,606
102,6	0,014	0,014	29,589
102,7	0,015	0,007	29,606
102,8	0,016	-0,004	29,571
102,9	0,017	-0,014	29,606
103,0	0,017	-0,019	29,606
103,1	0,018	-0,017	29,606
103,2	0,018	-0,012	29,606
103,3	0,018	-0,009	29,606
103,4	0,018	-0,005	29,589
103,5	0,018	0,001	29,606
103,6	0,017	0,011	29,606
103,7	0,017	0,018	29,606
103,8	0,017	0,017	29,606
103,9	0,016	0,010	29,589
104,0	0,016	0,004	29,606
104,1	0,015	0,005	29,589
104,2	0,015	0,007	29,519
104,3	0,014	0,001	29,606
104,4	0,013	-0,011	29,571
104,5	0,012	-0,019	29,606
104,6	0,011	-0,016	29,589
104,7	0,010	-0,005	29,571
104,8	0,008	0,003	29,571
104,9	0,007	0,004	29,606
105,0	0,006	0,002	29,571
105,1	0,006	0,003	29,589
105,2	0,006	0,004	29,571
105,3	0,006	0,003	29,606
105,4	0,007	0,001	29,589
105,5	0,009	0,001	29,606
105,6	0,010	0,000	29,589
105,7	0,012	-0,005	29,606
105,8	0,014	-0,015	29,571
105,9	0,015	-0,018	29,606
106,0	0,016	-0,007	29,536
106,1	0,016	0,011	29,606
106,2	0,016	0,021	29,606
106,3	0,015	0,015	29,606
106,4	0,014	0,003	29,606
106,5	0,012	-0,003	29,606
106,6	0,011	-0,001	29,606
106,7	0,009	-0,001	29,589
106,8	0,008	-0,004	29,536
106,9	0,007	-0,008	29,606
107,0	0,006	-0,007	29,554
107,1	0,006	-0,003	29,589
107,2	0,007	-0,002	29,589
107,3	0,008	-0,004	29,606
107,4	0,009	-0,004	29,554
107,5	0,011	0,001	29,606
107,6	0,012	0,010	29,571
107,7	0,014	0,016	29,589
107,8	0,015	0,016	29,571
107,9	0,016	0,012	29,606
108,0	0,016	0,005	29,589
108,1	0,016	-0,004	29,606
108,2	0,016	-0,012	29,571
108,3	0,015	-0,015	29,589
108,4	0,015	-0,011	29,606
108,5	0,014	-0,002	29,606
108,6	0,013	0,006	29,571
108,7	0,013	0,008	29,589
108,8	0,012	0,002	29,589
108,9	0,012	-0,009	29,606
109,0	0,012	-0,015	29,571
109,1	0,012	-0,010	29,571
109,2	0,012	0,004	29,571
109,3	0,012	0,016	29,606
109,4	0,012	0,016	29,589
109,5	0,013	0,007	29,606
109,6	0,013	-0,001	29,554
109,7	0,014	0,000	29,606
109,8	0,014	0,007	29,589
109,9	0,014	0,009	29,606
110,0	0,015	0,003	29,536
110,1	0,014	-0,008	29,606
110,2	0,014	-0,016	29,589
110,3	0,013	-0,018	29,571
110,4	0,013	-0,013	29,589
110,5	0,012	-0,004	29,606
110,6	0,010	0,004	29,606
110,7	0,009	0,008	29,589
110,8	0,008	0,007	29,554
110,9	0,007	0,003	29,606
111,0	0,006	0,000	29,536
111,1	0,006	0,000	29,571
111,2	0,006	0,000	29,571
111,3	0,006	-0,003	29,606
111,4	0,007	-0,007	29,519
111,5	0,008	-0,007	29,606
111,6	0,009	-0,001	29,536
111,7	0,010	0,008	29,606
111,8	0,011	0,014	29,571
111,9	0,013	0,013	29,606
112,0	0,013	0,006	29,589
112,1	0,014	-0,002	29,606
112,2	0,015	-0,010	29,536
112,3	0,015	-0,013	29,606
112,4	0,015	-0,012	29,484
112,5	0,014	-0,007	29,589
112,6	0,014	0,000	29,536
112,7	0,014	0,006	29,571
112,8	0,013	0,010	29,606
112,9	0,013	0,013	29,606
113,0	0,013	0,013	29,589
113,1	0,012	0,010	29,571
113,2	0,012	0,003	29,571
113,3	0,013	-0,005	29,589
113,4	0,013	-0,012	29,571
113,5	0,013	-0,013	29,606
113,6	0,014	-0,008	29,606
113,7	0,014	0,002	29,606
113,8	0,015	0,009	29,571
113,9	0,015	0,010	29,554
114,0	0,016	0,000	29,519
114,1	0,016	-0,013	29,589
114,2	0,016	-0,021	29,554
114,3	0,017	-0,016	29,589
114,4	0,017	-0,001	29,589
114,5	0,016	0,012	29,589
114,6	0,016	0,012	29,571
114,7	0,015	0,001	29,589
114,8	0,015	-0,012	29,554
114,9	0,014	-0,016	29,606
115,0	0,013	-0,007	29,501
115,1	0,012	0,004	29,554
115,2	0,012	0,008	29,589
115,3	0,011	0,002	29,606
115,4	0,010	-0,006	29,554
115,5	0,009	-0,010	29,571
115,6	0,008	-0,007	29,589
115,7	0,008	0,001	29,606
115,8	0,007	0,007	29,536
115,9	0,007	0,010	29,589
116,0	0,007	0,007	29,606
116,1	0,007	0,001	29,606
116,2	0,007	-0,004	29,554
116,3	0,008	-0,004	29,571
116,4	0,009	0,001	29,519
116,5	0,010	0,005	29,589
116,6	0,011	0,003	29,519
116,7	0,012	-0,005	29,571
116,8	0,014	-0,014	29,554
116,9	0,015	-0,018	29,606
117,0	0,016	-0,013	29,554
117,1	0,016	0,000	29,571
117,2	0,016	0,012	29,554
117,3	0,016	0,017	29,589
117,4	0,016	0,013	29,536
117,5	0,016	0,007	29,554
117,6	0,015	0,003	29,554
117,7	0,014	0,001	29,589
117,8	0,013	-0,003	29,519
117,9	0,012	-0,010	29,571
118,0	0,011	-0,016	29,484
118,1	0,011	-0,013	29,606
118,2	0,011	-0,005	29,554
118,3	0,010	0,000	29,554
118,4	0,010	-0,001	29,554
118,5	0,011	0,000	29,606
118,6	0,011	0,007	29,519
118,7	0,011	0,014	29,554
118,8	0,012	0,014	29,571
118,9	0,012	0,006	29,571
119,0	0,013	0,000	29,554
119,1	0,013	0,002	29,606
119,2	0,014	0,004	29,536
119,3	0,014	-0,002	29,606
119,4	0,014	-0,015	29,554
119,5	0,015	-0,022	29,571
119,6	0,015	-0,016	29,519
119,7	0,015	-0,002	29,589
119,8	0,015	0,008	29,554
119,9	0,015	0,010	29,554
120,0	0,015	0,008	29,571
120,1	0,015	0,009	29,571
120,2	0,015	0,009	29,536
120,3	0,014	0,007	29,571
120,4	0,014	0,000	29,536
120,5	0,013	-0,007	29,606
120,6	0,012	-0,013	29,571
120,7	0,011	-0,015	29,589
120,8	0,010	-0,014	29,571
120,9	0,010	-0,009	29,554
121,0	0,010	-0,002	29,519
121,1	0,010	0,004	29,571
121,2	0,010	0,006	29,519
121,3	0,012	0,008	29,571
121,4	0,013	0,008	29,536
121,5	0,015	0,008	29,554
121,6	0,018	0,009	29,589
121,7	0,021	0,011	29,606
121,8	0,023	0,011	29,484
121,9	0,025	0,001	29,589
122,0	0,027	-0,019	29,519
122,1	0,028	-0,037	29,589
122,2	0,028	-0,037	29,501
122,3	0,027	-0,016	29,554
122,4	0,025	0,008	29,554
122,5	0,023	0,016	29,589
122,6	0,021	0,009	29,554
122,7	0,018	0,000	29,571
122,8	0,015	0,003	29,536
122,9	0,012	0,011	29,589
123,0	0,010	0,014	29,501
123,1	0,008	0,008	29,554
123,2	0,007	0,002	29,536
123,3	0,007	0,000	29,589
123,4	0,007	0,001	29,501
123,5	0,008	-0,001	29,554
123,6	0,009	-0,006	29,519
123,7	0,010	-0,010	29,554
123,8	0,011	-0,012	29,519
123,9	0,012	-0,013	29,589
124,0	0,013	-0,013	29,571
124,1	0,014	-0,008	29,606
124,2	0,015	0,002	29,554
124,3	0,016	0,012	29,571
124,4	0,016	0,014	29,554
124,5	0,016	0,007	29,571
124,6	0,016	-0,004	29,519
124,7	0,016	-0,012	29,536
124,8	0,017	-0,010	29,501
124,9	0,017	0,001	29,589
125,0	0,017	0,015	29,501
125,1	0,017	0,022	29,571
125,2	0,017	0,014	29,536
125,3	0,017	-0,004	29,589
125,4	0,017	-0,019	29,501
125,5	0,017	-0,018	29,589
125,6	0,017	-0,006	29,519
125,7	0,017	-0,001	29,554
125,8	0,017	-0,006	29,519
125,9	0,018	-0,013	29,554
126,0	0,018	-0,008	29,519
126,1	0,018	0,009	29,554
126,2	0,018	0,023	29,501
126,3	0,018	0,022	29,554
126,4	0,018	0,012	29,589
126,5	0,017	0,004	29,606
126,6	0,017	0,001	29,519
126,7	0,016	-0,005	29,554
126,8	0,015	-0,013	29,536
126,9	0,014	-0,016	29,554
127,0	0,012	-0,008	29,519
127,1	0,011	0,004	29,536
127,2	0,010	0,009	29,501
127,3	0,008	0,004	29,571
127,4	0,007	-0,002	29,519
127,5	0,007	0,000	29,554
127,6	0,006	0,006	29,536
127,7	0,006	0,008	29,589
127,8	0,007	0,006	29,519
127,9	0,008	0,005	29,554
128,0	0,009	0,008	29,519
128,1	0,010	0,008	29,589
128,2	0,011	0,000	29,501
128,3	0,013	-0,010	29,554
128,4	0,014	-0,013	29,501
128,5	0,015	-0,008	29,536
128,6	0,016	-0,006	29,484
128,7	0,017	-0,012	29,571
128,8	0,018	-0,019	29,589
128,9	0,018	-0,015	29,606
129,0	0,018	0,000	29,536
129,1	0,017	0,014	29,571
129,2	0,017	0,019	29,484
129,3	0,016	0,014	29,536
129,4	0,015	0,007	29,501
129,5	0,014	0,001	29,519
129,6	0,013	-0,006	29,571
129,7	0,013	-0,010	29,554
129,8	0,012	-0,008	29,536
129,9	0,012	0,002	29,554
130,0	0,012	0,011	29,484
130,1	0,013	0,010	29,589
130,2	0,014	0,000	29,501
130,3	0,014	-0,013	29,536
130,4	0,016	-0,019	29,519
130,5	0,017	-0,017	29,571
130,6	0,017	-0,011	29,536
130,7	0,018	-0,004	29,554
130,8	0,019	0,002	29,554
130,9	0,019	0,006	29,519
131,0	0,018	0,008	29,466
131,1	0,018	0,011	29,554
131,2	0,016	0,016	29,484
131,3	0,015	0,018	29,606
131,4	0,013	0,013	29,501
131,5	0,011	0,001	29,606
131,6	0,009	-0,009	29,554
131,7	0,008	-0,010	29,536
131,8	0,006	-0,005	29,449
131,9	0,006	-0,001	29,536
132,0	0,006	-0,001	29,484
132,1	0,006	-0,004	29,606
132,2	0,008	-0,005	29,519
132,3	0,010	-0,005	29,519
132,4	0,012	-0,005	29,554
132,5	0,015	-0,002	29,606
132,6	0,017	0,008	29,501
132,7	0,020	0,020	29,571
132,8	0,022	0,022	29,571
132,9	0,023	0,008	29,554
133,0	0,024	-0,015	29,536
133,1	0,024	-0,029	29,571
133,2	0,023	-0,023	29,519
133,3	0,021	-0,006	29,571
133,4	0,019	0,006	29,519
133,5	0,017	0,007	29,501
133,6	0,015	0,003	29,519
133,7	0,013	0,003	29,589
133,8	0,011	0,008	29,484
133,9	0,009	0,013	29,536
134,0	0,008	0,010	29,484
134,1	0,007	0,002	29,554
134,2	0,006	-0,004	29,519
134,3	0,006	-0,004	29,554
134,4	0,006	-0,004	29,536
134,5	0,006	-0,005	29,589
134,6	0,007	-0,008	29,484
134,7	0,007	-0,007	29,554
134,8	0,007	-0,002	29,536
134,9	0,007	0,001	29,589
135,0	0,007	0,002	29,501
135,1	0,007	0,002	29,536
135,2	0,007	0,004	29,484
135,3	0,006	0,008	29,536
135,4	0,006	0,007	29,466
135,5	0,005	0,002	29,536
135,6	0,005	-0,003	29,536
135,7	0,005	-0,002	29,536
135,8	0,004	0,002	29,501
135,9	0,004	0,004	29,519
136,0	0,005	0,000	29,519
136,1	0,005	-0,005	29,606
136,2	0,006	-0,007	29,484
136,3	0,007	-0,005	29,501
136,4	0,008	0,000	29,519
136,5	0,009	0,005	29,536
136,6	0,011	0,009	29,484
136,7	0,012	0,007	29,554
136,8	0,014	-0,002	29,484
136,9	0,015	-0,013	29,554
137,0	0,016	-0,017	29,484
137,1	0,017	-0,010	29,536
137,2	0,018	0,003	29,519
137,3	0,018	0,013	29,606
137,4	0,018	0,016	29,484
137,5	0,017	0,012	29,554
137,6	0,017	0,001	29,484
137,7	0,016	-0,013	29,554
137,8	0,016	-0,022	29,466
137,9	0,016	-0,019	29,554
138,0	0,016	-0,006	29,484
138,1	0,016	0,005	29,536
138,2	0,017	0,005	29,519
138,3	0,018	0,000	29,536
138,4	0,019	0,002	29,519
138,5	0,020	0,014	29,589
138,6	0,021	0,024	29,484
138,7	0,022	0,018	29,571
138,8	0,022	-0,003	29,449
138,9	0,022	-0,022	29,519
139,0	0,021	-0,027	29,466
139,1	0,020	-0,019	29,501
139,2	0,019	-0,008	29,501
139,3	0,017	0,001	29,606
139,4	0,016	0,007	29,466
139,5	0,015	0,010	29,536
139,6	0,014	0,007	29,501
139,7	0,013	-0,001	29,554
139,8	0,013	-0,007	29,519
139,9	0,014	-0,002	29,554
140,0	0,015	0,011	29,466
140,1	0,016	0,018	29,519
140,2	0,017	0,008	29,501
140,3	0,018	-0,013	29,519
140,4	0,019	-0,028	29,466
140,5	0,020	-0,024	29,484
140,6	0,020	-0,005	29,501
140,7	0,021	0,009	29,519
140,8	0,020	0,006	29,554
140,9	0,020	-0,005	29,589
141,0	0,019	-0,009	29,466
141,1	0,018	0,003	29,519
141,2	0,017	0,019	29,484
141,3	0,016	0,023	29,554
141,4	0,015	0,014	29,501
141,5	0,014	0,001	29,536
141,6	0,013	-0,004	29,536
141,7	0,012	-0,005	29,536
141,8	0,011	-0,006	29,449
141,9	0,011	-0,009	29,519
142,0	0,010	-0,011	29,466
142,1	0,010	-0,009	29,589
142,2	0,010	-0,006	29,536
142,3	0,010	-0,006	29,554
142,4	0,010	-0,007	29,519
142,5	0,009	-0,005	29,554
142,6	0,009	0,000	29,501
142,7	0,009	0,004	29,484
142,8	0,008	0,006	29,466
142,9	0,008	0,005	29,554
143,0	0,008	0,005	29,466
143,1	0,007	0,007	29,554
143,2	0,007	0,008	29,536
143,3	0,007	0,008	29,536
143,4	0,007	0,005	29,484
143,5	0,007	0,000	29,536
143,6	0,008	-0,006	29,466
143,7	0,009	-0,006	29,536
143,8	0,010	0,000	29,484
143,9	0,011	0,007	29,554
144,0	0,013	0,009	29,449
144,1	0,014	0,002	29,571
144,2	0,016	-0,011	29,484
144,3	0,017	-0,018	29,501
144,4	0,018	-0,016	29,501
144,5	0,018	-0,004	29,571
144,6	0,018	0,009	29,536
144,7	0,017	0,017	29,536
144,8	0,016	0,016	29,501
144,9	0,015	0,008	29,589
145,0	0,013	-0,003	29,484
145,1	0,012	-0,010	29,484
145,2	0,011	-0,009	29,484
145,3	0,010	-0,004	29,519
145,4	0,009	0,002	29,519
145,5	0,009	0,005	29,571
145,6	0,009	0,006	29,571
145,7	0,009	0,002	29,571
145,8	0,010	-0,005	29,519
145,9	0,011	-0,012	29,501
146,0	0,012	-0,014	29,484
146,1	0,013	-0,010	29,554
146,2	0,013	-0,001	29,484
146,3	0,014	0,007	29,554
146,4	0,014	0,012	29,466
146,5	0,014	0,013	29,536
146,6	0,013	0,011	29,466
146,7	0,013	0,007	29,501
146,8	0,012	0,003	29,501
146,9	0,011	0,001	29,536
147,0	0,010	-0,001	29,501
147,1	0,009	-0,006	29,554
147,2	0,009	-0,011	29,466
147,3	0,008	-0,013	29,589
147,4	0,008	-0,006	29,466
147,5	0,008	0,003	29,519
147,6	0,009	0,004	29,484
147,7	0,010	-0,002	29,519
147,8	0,011	-0,008	29,554
147,9	0,012	-0,004	29,536
148,0	0,013	0,007	29,484
148,1	0,014	0,015	29,571
148,2	0,015	0,014	29,466
148,3	0,015	0,010	29,501
148,4	0,016	0,006	29,449
148,5	0,016	0,002	29,501
148,6	0,015	-0,006	29,484
148,7	0,015	-0,015	29,501
148,8	0,014	-0,019	29,519
148,9	0,014	-0,014	29,554
149,0	0,013	-0,007	29,466
149,1	0,013	-0,001	29,501
149,2	0,013	0,002	29,484
149,3	0,013	0,005	29,571
149,4	0,013	0,009	29,554
149,5	0,013	0,011	29,501
149,6	0,014	0,010	29,536
149,7	0,015	0,003	29,536
149,8	0,016	-0,007	29,449
149,9	0,016	-0,016	29,554
150,0	0,017	-0,021	29,449
150,1	0,017	-0,017	29,501
150,2	0,017	-0,009	29,484
150,3	0,017	-0,004	29,484
150,4	0,016	-0,003	29,501
150,5	0,016	0,000	29,536
150,6	0,015	0,010	29,484
150,7	0,014	0,019	29,536
150,8	0,014	0,016	29,449
150,9	0,014	0,001	29,519
151,0	0,014	-0,008	29,484
151,1	0,014	-0,004	29,519
151,2	0,015	0,005	29,536
151,3	0,016	0,001	29,519
151,4	0,017	-0,016	29,484
151,5	0,018	-0,027	29,536
151,6	0,019	-0,017	29,449
151,7	0,020	0,003	29,554
151,8	0,021	0,014	29,466
151,9	0,021	0,010	29,519
152,0	0,021	0,007	29,536
152,1	0,021	0,014	29,554
152,2	0,020	0,022	29,501
152,3	0,019	0,015	29,554
152,4	0,017	-0,004	29,484
152,5	0,016	-0,017	29,554
152,6	0,014	-0,013	29,449
152,7	0,012	0,001	29,519
152,8	0,011	0,009	29,484
152,9	0,010	0,008	29,536
153,0	0,009	0,002	29,519
153,1	0,008	-0,001	29,501
153,2	0,008	-0,003	29,466
153,3	0,008	-0,002	29,484
153,4	0,008	0,002	29,449
153,5	0,008	0,010	29,501
153,6	0,008	0,013	29,501
153,7	0,008	0,008	29,589
153,8	0,009	-0,002	29,501
153,9	0,009	-0,009	29,501
154,0	0,009	-0,009	29,466
154,1	0,009	-0,006	29,554
154,2	0,010	-0,002	29,466
154,3	0,010	0,001	29,554
154,4	0,010	0,003	29,484
154,5	0,011	0,003	29,501
154,6	0,011	0,003	29,449
154,7	0,011	0,007	29,484
154,8	0,011	0,015	29,484
154,9	0,011	0,017	29,536
155,0	0,011	0,009	29,484
155,1	0,010	-0,004	29,501
155,2	0,010	-0,010	29,484
155,3	0,009	-0,005	29,519
155,4	0,008	0,000	29,466
155,5	0,007	-0,002	29,449
155,6	0,007	-0,006	29,466
155,7	0,007	-0,004	29,554
155,8	0,007	0,002	29,501
155,9	0,007	-0,001	29,536
156,0	0,008	-0,010	29,484
156,1	0,010	-0,013	29,519
156,2	0,011	-0,001	29,484
156,3	0,013	0,014	29,501
156,4	0,016	0,013	29,484
156,5	0,018	-0,004	29,501
156,6	0,020	-0,016	29,449
156,7	0,021	-0,009	29,501
156,8	0,023	0,010	29,449
156,9	0,024	0,023	29,554
157,0	0,024	0,021	29,466
157,1	0,024	0,009	29,484
157,2	0,023	-0,005	29,466
157,3	0,021	-0,018	29,484
157,4	0,020	-0,023	29,449
157,5	0,018	-0,016	29,519
157,6	0,016	0,000	29,466
157,7	0,015	0,012	29,606
157,8	0,013	0,009	29,501
157,9	0,012	-0,003	29,501
158,0	0,011	-0,007	29,449
158,1	0,011	0,001	29,484
158,2	0,011	0,010	29,466
158,3	0,011	0,010	29,466
158,4	0,012	0,005	29,484
158,5	0,013	0,001	29,536
158,6	0,014	-0,002	29,449
158,7	0,014	-0,010	29,501
158,8	0,015	-0,020	29,449
158,9	0,015	-0,021	29,536
159,0	0,015	-0,011	29,466
159,1	0,015	0,000	29,466
159,2	0,015	0,001	29,484
159,3	0,014	-0,001	29,554
159,4	0,014	0,004	29,449
159,5	0,013	0,012	29,519
159,6	0,013	0,011	29,466
159,7	0,013	-0,003	29,484
159,8	0,013	-0,016	29,501
159,9	0,013	-0,013	29,501
160,0	0,013	0,001	29,466
160,1	0,013	0,007	29,606
160,2	0,014	-0,003	29,449
160,3	0,014	-0,015	29,519
160,4	0,014	-0,015	29,466
160,5	0,014	-0,005	29,449
160,6	0,014	0,006	29,484
160,7	0,013	0,010	29,449
160,8	0,012	0,009	29,484
160,9	0,012	0,007	29,554
161,0	0,011	0,004	29,466
161,1	0,010	0,003	29,501
161,2	0,009	0,007	29,466
161,3	0,009	0,013	29,501
161,4	0,009	0,014	29,484
161,5	0,009	0,006	29,466
161,6	0,009	-0,005	29,519
161,7	0,010	-0,010	29,484
161,8	0,011	-0,008	29,449
161,9	0,012	-0,003	29,536
162,0	0,013	0,001	29,449
162,1	0,015	0,007	29,519
162,2	0,016	0,010	29,466
162,3	0,017	0,005	29,501
162,4	0,017	-0,011	29,501
162,5	0,017	-0,024	29,554
162,6	0,017	-0,020	29,466
162,7	0,017	-0,002	29,501
162,8	0,016	0,014	29,449
162,9	0,015	0,015	29,519
163,0	0,015	0,009	29,449
163,1	0,014	0,008	29,466
163,2	0,013	0,010	29,449
163,3	0,013	0,008	29,484
163,4	0,013	0,001	29,449
163,5	0,013	-0,003	29,519
163,6	0,013	-0,001	29,449
163,7	0,013	-0,001	29,536
163,8	0,014	-0,010	29,466
163,9	0,014	-0,020	29,501
164,0	0,014	-0,017	29,449
164,1	0,013	0,000	29,501
164,2	0,013	0,016	29,466
164,3	0,013	0,017	29,466
164,4	0,012	0,009	29,449
164,5	0,013	0,004	29,519
164,6	0,013	0,004	29,449
164,7	0,014	0,007	29,449
164,8	0,016	0,009	29,466
164,9	0,018	0,012	29,554
165,0	0,020	0,012	29,449
165,1	0,023	0,004	29,466
165,2	0,026	-0,013	29,449
165,3	0,029	-0,030	29,484
165,4	0,031	-0,035	29,466
165,5	0,032	-0,025	29,484
165,6	0,033	-0,008	29,449
165,7	0,033	0,010	29,519
165,8	0,032	0,026	29,449
165,9	0,030	0,033	29,466
166,0	0,027	0,025	29,466
166,1	0,024	0,006	29,519
166,2	0,021	-0,009	29,449
166,3	0,018	-0,009	29,536
166,4	0,015	0,000	29,466
166,5	0,012	0,001	29,501
166,6	0,010	-0,008	29,466
166,7	0,008	-0,015	29,484
166,8	0,007	-0,010	29,466
166,9	0,007	-0,001	29,449
167,0	0,007	0,001	29,449
167,1	0,007	-0,005	29,519
167,2	0,007	-0,008	29,484
167,3	0,008	-0,002	29,554
167,4	0,008	0,007	29,449
167,5	0,008	0,009	29,501
167,6	0,008	0,003	29,449
167,7	0,008	-0,003	29,484
167,8	0,008	-0,006	29,466
167,9	0,007	-0,006	29,449
168,0	0,007	-0,004	29,449
168,1	0,006	0,000	29,501
168,2	0,006	0,003	29,449
168,3	0,006	0,001	29,501
168,4	0,006	-0,005	29,466
168,5	0,006	-0,009	29,519
168,6	0,006	-0,006	29,449
168,7	0,007	-0,004	29,484
168,8	0,008	-0,005	29,466
168,9	0,009	-0,007	29,484
169,0	0,011	-0,001	29,484
169,1	0,013	0,010	29,501
169,2	0,015	0,016	29,449
169,3	0,017	0,013	29,536
169,4	0,020	0,009	29,449
169,5	0,022	0,008	29,501
169,6	0,024	0,006	29,449
169,7	0,026	-0,009	29,554
169,8	0,027	-0,028	29,449
169,9	0,027	-0,033	29,501
170,0	0,027	-0,016	29,449
170,1	0,026	0,009	29,466
170,2	0,025	0,021	29,449
170,3	0,023	0,019	29,449
170,4	0,021	0,014	29,449
170,5	0,019	0,015	29,484
170,6	0,017	0,017	29,449
170,7	0,015	0,011	29,501
170,8	0,014	0,003	29,449
170,9	0,013	0,001	29,519
171,0	0,013	0,004	29,449
171,1	0,013	0,002	29,466
171,2	0,014	-0,007	29,449
171,3	0,015	-0,016	29,466
171,4	0,016	-0,017	29,449
171,5	0,018	-0,013	29,501
171,6	0,019	-0,006	29,449
171,7	0,020	0,004	29,536
171,8	0,021	0,018	29,449
171,9	0,021	0,026	29,484
172,0	0,021	0,019	29,449
172,1	0,021	0,000	29,484
172,2	0,020	-0,014	29,449
172,3	0,019	-0,010	29,466
172,4	0,019	0,004	29,449
172,5	0,018	0,009	29,484
172,6	0,017	-0,001	29,449
172,7	0,017	-0,016	29,466
172,8	0,016	-0,023	29,449
172,9	0,016	-0,019	29,484
173,0	0,016	-0,009	29,466
173,1	0,016	0,002	29,484
173,2	0,016	0,010	29,466
173,3	0,016	0,008	29,501
173,4	0,016	-0,004	29,449
173,5	0,015	-0,016	29,501
173,6	0,015	-0,014	29,466
173,7	0,014	0,001	29,466
173,8	0,013	0,015	29,449
173,9	0,013	0,013	29,466
174,0	0,012	0,001	29,449
174,1	0,011	-0,006	29,466
174,2	0,010	-0,002	29,449
174,3	0,009	0,000	29,501
174,4	0,008	-0,004	29,466
174,5	0,008	-0,009	29,536
174,6	0,007	-0,003	29,449
174,7	0,007	0,009	29,484
174,8	0,007	0,015	29,466
174,9	0,007	0,008	29,501
175,0	0,008	-0,002	29,449
175,1	0,009	-0,006	29,466
175,2	0,010	-0,003	29,449
175,3	0,012	0,001	29,501
175,4	0,013	0,004	29,449
175,5	0,015	0,008	29,466
175,6	0,016	0,009	29,466
175,7	0,017	0,000	29,519
175,8	0,018	-0,016	29,466
175,9	0,018	-0,027	29,501
176,0	0,018	-0,021	29,449
176,1	0,017	-0,005	29,484
176,2	0,016	0,007	29,449
176,3	0,014	0,008	29,466
176,4	0,012	0,005	29,449
176,5	0,010	0,004	29,536
176,6	0,008	0,006	29,449
176,7	0,007	0,006	29,484
176,8	0,006	0,003	29,449
176,9	0,005	0,000	29,501
177,0	0,006	-0,001	29,449
177,1	0,007	-0,005	29,449
177,2	0,009	-0,011	29,449
177,3	0,011	-0,014	29,484
177,4	0,014	-0,009	29,466
177,5	0,017	0,002	29,466
177,6	0,020	0,013	29,449
177,7	0,022	0,016	29,484
177,8	0,024	0,008	29,449
177,9	0,025	-0,008	29,484
178,0	0,025	-0,024	29,466
178,1	0,025	-0,027	29,536
178,2	0,023	-0,014	29,449
178,3	0,022	0,008	29,466
178,4	0,019	0,022	29,449
178,5	0,017	0,020	29,484
178,6	0,014	0,008	29,449
178,7	0,012	0,000	29,484
178,8	0,011	0,000	29,449
178,9	0,010	0,004	29,484
179,0	0,009	0,003	29,449
179,1	0,010	0,000	29,484
179,2	0,011	-0,005	29,466
179,3	0,013	-0,010	29,536
179,4	0,014	-0,016	29,449
179,5	0,016	-0,019	29,449
179,6	0,018	-0,011	29,449
179,7	0,019	0,005	29,449
179,8	0,020	0,019	29,449
179,9	0,021	0,022	29,449
180,0	0,021	0,015	29,449
180,1	0,020	0,008	29,344
180,2	0,019	0,009	29,291
180,3	0,018	0,013	29,221
180,4	0,017	0,011	29,011
180,5	0,015	0,003	27,209
180,6	0,014	-0,008	22,117
180,7	0,013	-0,014	18,023
180,8	0,012	-0,014	14,436
180,9	0,011	-0,010	10,849
181,0	0,009	-0,006	7,367
181,1	0,009	-0,001	4,724
181,2	0,008	0,002	2,992
181,3	0,007	0,004	1,890
181,4	0,006	0,004	1,102
181,5	0,005	0,003	0,630
181,6	0,004	0,002	0,472
181,7	0,004	0,003	0,315
181,8	0,003	0,003	0,297
181,9	0,003	0,001	0,192
182,0	0,003	0,000	0,157
182,1	0,002	0,000	0,157
182,2	0,002	0,001	0,157
182,3	0,002	0,001	0,157
182,4	0,002	0,002	0,157
182,5	0,003	0,003	0,157
182,6	0,003	0,003	0,140
182,7	0,003	0,003	0,157
182,8	0,003	0,003	0,157
182,9	0,003	0,002	0,157
183,0	0,003	0,002	0,157
183,1	0,003	0,002	0,157
183,2	0,002	0,002	0,157
183,3	0,002	0,001	0,157
183,4	0,002	0,001	0,157
183,5	0,002	0,001	0,157
183,6	0,002	0,001	0,157
183,7	0,002	0,001	0,157
183,8	0,003	0,002	0,140
183,9	0,003	0,003	0,140
184,0	0,003	0,003	0,122
184,1	0,003	0,004	0,157
184,2	0,003	0,003	0,140
184,3	0,003	0,003	0,157
184,4	0,003	0,002	0,157
184,5	0,003	0,000	0,157
184,6	0,003	0,000	0,122
184,7	0,003	0,000	0,157
184,8	0,003	0,001	0,157
184,9	0,002	0,002	0,157
185,0	0,002	0,003	0,087
185,1	0,002	0,003	0,157
185,2	0,002	0,002	0,140
185,3	0,002	0,002	0,157
185,4	0,002	0,002	0,157
185,5	0,002	0,003	0,157
185,6	0,002	0,003	0,157
185,7	0,002	0,002	0,157
185,8	0,002	0,001	0,157
185,9	0,002	0,001	0,157
186,0	0,002	0,001	0,157
186,1	0,002	0,002	0,157
186,2	0,002	0,002	0,140
186,3	0,002	0,002	0,157
186,4	0,002	0,002	0,157
186,5	0,002	0,003	0,157
186,6	0,002	0,003	0,157
186,7	0,002	0,003	0,157
186,8	0,002	0,002	0,140
186,9	0,002	0,001	0,157
187,0	0,002	0,001	0,157
187,1	0,002	0,002	0,140
187,2	0,002	0,002	0,157
187,3	0,002	0,002	0,157
187,4	0,002	0,002	0,140
187,5	0,002	0,002	0,157
187,6	0,002	0,002	0,157
187,7	0,002	0,002	0,157
187,8	0,002	0,002	0,140
187,9	0,002	0,002	0,157
188,0	0,002	0,002	0,157
188,1	0,002	0,002	0,157
188,2	0,002	0,002	0,157
188,3	0,002	0,002	0,157
188,4	0,002	0,002	0,140
188,5	0,002	0,002	0,157
188,6	0,002	0,002	0,140
188,7	0,002	0,002	0,157
188,8	0,002	0,003	0,140
188,9	0,002	0,003	0,157
189,0	0,002	0,003	0,140
189,1	0,002	0,002	0,157
189,2	0,002	0,001	0,157
189,3	0,002	0,001	0,157
189,4	0,002	0,001	0,122
189,5	0,002	0,002	0,157
189,6	0,002	0,002	0,157
189,7	0,002	0,002	0,157
189,8	0,002	0,002	0,157
189,9	0,002	0,002	0,157
190,0	0,002	0,002	0,157
190,1	0,002	0,002	0,157
190,2	0,002	0,002	0,140
190,3	0,002	0,002	0,157
190,4	0,002	0,002	0,157
190,5	0,002	0,001	0,157
190,6	0,002	0,001	0,140
190,7	0,002	0,001	0,157
190,8	0,002	0,001	0,157
190,9	0,002	0,002	0,157
191,0	0,002	0,002	0,157
191,1	0,002	0,002	0,140
191,2	0,002	0,002	0,140
191,3	0,002	0,002	0,157
191,4	0,002	0,002	0,157
191,5	0,002	0,002	0,157
191,6	0,002	0,002	0,157
191,7	0,002	0,001	0,157
191,8	0,002	0,001	0,157
191,9	0,002	0,002	0,157
192,0	0,002	0,003	0,157
192,1	0,002	0,003	0,157
192,2	0,002	0,002	0,140
192,3	0,002	0,002	0,157
192,4	0,002	0,003	0,157
192,5	0,002	0,003	0,157
192,6	0,002	0,003	0,157
192,7	0,002	0,001	0,157
192,8	0,002	0,001	0,157
192,9	0,002	0,001	0,157
193,0	0,002	0,002	0,140
193,1	0,002	0,002	0,157
193,2	0,002	0,002	0,105
193,3	0,002	0,002	0,157
193,4	0,002	0,002	0,140
193,5	0,002	0,002	0,157
193,6	0,002	0,002	0,157
193,7	0,002	0,002	0,157
193,8	0,002	0,002	0,140
193,9	0,002	0,002	0,157
194,0	0,002	0,002	0,157
194,1	0,002	0,002	0,157
194,2	0,002	0,001	0,140
194,3	0,002	0,001	0,157
194,4	0,002	0,001	0,157
194,5	0,002	0,002	0,157
194,6	0,002	0,001	0,140
194,7	0,002	0,001	0,157
194,8	0,002	0,002	0,157
194,9	0,002	0,002	0,140
195,0	0,002	0,003	0,157
195,1	0,002	0,003	0,157
195,2	0,002	0,002	0,140
195,3	0,002	0,002	0,157
195,4	0,002	0,002	0,157
195,5	0,002	0,002	0,157
195,6	0,002	0,002	0,140
195,7	0,002	0,002	0,157
195,8	0,002	0,001	0,122
195,9	0,002	0,001	0,157
196,0	0,002	0,001	0,157
196,1	0,002	0,002	0,157
196,2	0,002	0,003	0,122
196,3	0,002	0,003	0,140
196,4	0,002	0,002	0,157
196,5	0,003	0,002	0,157
196,6	0,003	0,002	0,157
196,7	0,003	0,003	0,157
196,8	0,003	0,003	0,140
196,9	0,003	0,001	0,157
197,0	0,002	0,001	0,157
197,1	0,002	0,002	0,157
197,2	0,002	0,003	0,157
197,3	0,002	0,003	0,157
197,4	0,002	0,002	0,140
197,5	0,002	0,001	0,157
197,6	0,002	0,002	0,157
197,7	0,002	0,002	0,157
197,8	0,002	0,001	0,122
197,9	0,003	0,002	0,140
198,0	0,003	0,004	0,105
198,1	0,003	0,003	0,157
198,2	0,003	0,001	0,157
198,3	0,003	0,000	0,157
198,4	0,003	0,002	0,157
198,5	0,003	0,004	0,157
198,6	0,003	0,003	0,157
198,7	0,003	0,000	0,157
198,8	0,003	0,000	0,157
198,9	0,003	0,003	0,157
199,0	0,003	0,005	0,140
199,1	0,003	0,002	0,157
199,2	0,003	-0,001	0,157
199,3	0,004	0,002	0,157
199,4	0,004	0,006	0,122
199,5	0,004	0,005	0,157
199,6	0,005	0,000	0,157
199,7	0,005	-0,001	0,157
199,8	0,006	0,005	0,157
199,9	0,006	0,007	0,157
