time [µs]	HF [V]	NF [V]	TGC [dB]
0,0	0,465	0,139	1,050
0,1	0,545	0,424	1,172
0,2	0,613	0,248	0,560
0,3	0,663	-0,375	0,157
0,4	0,695	-0,834	1,732
0,5	0,708	-0,576	1,575
0,6	0,705	0,241	1,260
0,7	0,693	0,890	0,945
0,8	0,676	0,867	0,787
0,9	0,664	0,351	0,945
1,0	0,662	-0,133	1,032
1,1	0,676	-0,313	1,260
1,2	0,707	-0,291	1,242
1,3	0,755	-0,193	0,945
1,4	0,815	0,058	0,945
1,5	0,882	0,519	0,945
1,6	0,945	0,954	1,085
1,7	0,997	0,957	1,102
1,8	1,029	0,368	0,997
1,9	1,032	-0,507	1,085
2,0	1,005	-1,146	1,085
2,1	0,947	-1,233	1,102
2,2	0,861	-0,860	1,085
2,3	0,755	-0,375	1,102
2,4	0,638	-0,075	0,945
2,5	0,522	-0,017	1,085
2,6	0,417	-0,063	1,102
2,7	0,333	-0,064	0,945
2,8	0,276	-0,012	1,067
2,9	0,249	-0,018	1,102
3,0	0,253	-0,162	0,962
3,1	0,284	-0,373	1,102
3,2	0,334	-0,476	0,945
3,3	0,395	-0,360	0,962
3,4	0,458	-0,081	1,085
3,5	0,513	0,206	0,980
3,6	0,552	0,391	0,945
3,7	0,571	0,470	1,102
3,8	0,567	0,491	0,945
3,9	0,540	0,474	1,032
4,0	0,493	0,401	1,102
4,1	0,431	0,269	0,945
4,2	0,359	0,122	0,997
4,3	0,284	0,019	1,067
4,4	0,212	-0,016	0,945
4,5	0,148	-0,011	1,102
4,6	0,097	-0,007	0,945
4,7	0,059	-0,018	0,997
4,8	0,036	-0,026	1,067
4,9	0,026	-0,016	1,085
5,0	0,027	0,000	0,997
5,1	0,036	-0,003	1,050
5,2	0,049	-0,031	0,945
5,3	0,063	-0,060	1,085
5,4	0,076	-0,068	0,980
5,5	0,085	-0,060	0,980
5,6	0,090	-0,058	1,015
5,7	0,090	-0,071	1,015
5,8	0,086	-0,080	0,945
5,9	0,078	-0,065	1,085
6,0	0,067	-0,027	0,945
6,1	0,056	0,007	0,980
6,2	0,046	0,020	0,962
6,3	0,037	0,013	1,015
6,4	0,031	-0,002	1,015
6,5	0,027	-0,019	1,085
6,6	0,026	-0,036	0,962
6,7	0,027	-0,047	1,067
6,8	0,029	-0,045	0,945
6,9	0,033	-0,026	0,962
7,0	0,036	0,001	0,980
7,1	0,039	0,022	0,962
7,2	0,041	0,029	0,945
7,3	0,041	0,023	1,050
7,4	0,040	0,009	0,945
7,5	0,038	-0,011	1,050
7,6	0,036	-0,029	0,962
7,7	0,032	-0,036	0,997
7,8	0,029	-0,026	0,945
7,9	0,025	-0,006	0,980
8,0	0,023	0,011	0,962
8,1	0,020	0,018	1,015
8,2	0,019	0,015	0,945
8,3	0,019	0,007	0,997
8,4	0,019	-0,001	0,962
8,5	0,019	-0,010	1,032
8,6	0,020	-0,019	0,962
8,7	0,021	-0,024	1,015
8,8	0,022	-0,019	0,962
8,9	0,022	-0,008	1,015
9,0	0,022	0,004	0,945
9,1	0,021	0,010	0,997
9,2	0,020	0,013	0,945
9,3	0,019	0,015	0,980
9,4	0,018	0,016	0,945
9,5	0,016	0,014	0,997
9,6	0,015	0,010	0,945
9,7	0,014	0,006	1,050
9,8	0,014	0,002	0,945
9,9	0,014	-0,003	1,015
10,0	0,015	-0,010	0,980
10,1	0,016	-0,017	1,050
10,2	0,017	-0,019	0,962
10,3	0,018	-0,013	0,962
10,4	0,019	-0,001	0,945
10,5	0,020	0,012	1,015
10,6	0,020	0,021	0,945
10,7	0,020	0,021	0,962
10,8	0,020	0,014	0,945
10,9	0,020	0,004	1,032
11,0	0,020	-0,005	0,962
11,1	0,019	-0,011	0,997
11,2	0,018	-0,014	1,032
11,3	0,018	-0,013	0,997
11,4	0,017	-0,008	0,945
11,5	0,017	0,001	0,945
11,6	0,016	0,012	0,945
11,7	0,016	0,020	0,980
11,8	0,016	0,019	0,962
11,9	0,015	0,011	1,032
12,0	0,015	0,003	0,962
12,1	0,015	-0,003	1,067
12,2	0,014	-0,005	0,980
12,3	0,013	-0,008	1,050
12,4	0,012	-0,012	0,962
12,5	0,011	-0,012	1,015
12,6	0,010	-0,006	0,945
12,7	0,009	0,002	1,032
12,8	0,008	0,007	0,945
12,9	0,006	0,005	1,032
13,0	0,005	0,001	0,980
13,1	0,004	-0,001	0,945
13,2	0,004	0,001	0,945
13,3	0,004	0,004	1,102
13,4	0,004	0,002	0,945
13,5	0,004	-0,001	1,032
13,6	0,005	-0,003	0,980
13,7	0,006	-0,002	1,015
13,8	0,007	0,000	0,945
13,9	0,009	0,002	1,032
14,0	0,010	0,004	0,945
14,1	0,012	0,009	1,032
14,2	0,014	0,014	0,945
14,3	0,015	0,015	1,015
14,4	0,017	0,008	0,980
14,5	0,018	-0,003	1,085
14,6	0,019	-0,014	0,980
14,7	0,020	-0,019	1,067
14,8	0,020	-0,017	0,962
14,9	0,021	-0,010	0,997
15,0	0,021	0,002	0,945
15,1	0,021	0,014	1,015
15,2	0,022	0,021	0,962
15,3	0,022	0,020	0,997
15,4	0,023	0,010	0,962
15,5	0,023	-0,004	1,015
15,6	0,024	-0,017	0,962
15,7	0,024	-0,023	1,032
15,8	0,025	-0,020	0,980
15,9	0,025	-0,008	1,015
16,0	0,025	0,007	0,945
16,1	0,025	0,021	1,050
16,2	0,025	0,027	0,945
16,3	0,024	0,022	0,962
16,4	0,023	0,009	0,962
16,5	0,023	-0,006	1,067
16,6	0,021	-0,016	1,015
16,7	0,020	-0,019	1,032
16,8	0,019	-0,015	0,997
16,9	0,018	-0,007	1,015
17,0	0,017	0,003	0,962
17,1	0,016	0,010	0,962
17,2	0,016	0,014	0,945
17,3	0,015	0,015	0,997
17,4	0,015	0,011	0,945
17,5	0,015	0,003	1,032
17,6	0,015	-0,007	1,032
17,7	0,015	-0,015	1,067
17,8	0,015	-0,015	0,945
17,9	0,015	-0,007	0,997
18,0	0,015	0,003	0,945
18,1	0,014	0,011	0,997
18,2	0,014	0,013	0,945
18,3	0,014	0,012	1,015
18,4	0,014	0,010	0,962
18,5	0,014	0,005	1,032
18,6	0,014	-0,002	0,962
18,7	0,014	-0,010	1,050
18,8	0,014	-0,013	0,980
18,9	0,013	-0,012	1,015
19,0	0,013	-0,006	0,945
19,1	0,012	0,001	0,980
19,2	0,011	0,006	0,962
19,3	0,010	0,010	1,102
19,4	0,009	0,010	0,962
19,5	0,008	0,008	1,015
19,6	0,006	0,004	0,980
19,7	0,005	0,001	1,050
19,8	0,004	0,000	0,962
19,9	0,004	-0,001	1,015
20,0	0,003	-0,001	1,015
20,1	0,003	-0,002	1,050
20,2	0,004	-0,003	0,962
20,3	0,004	-0,004	1,032
20,4	0,005	-0,004	0,962
20,5	0,006	-0,005	1,015
20,6	0,007	-0,004	1,015
20,7	0,008	0,000	0,980
20,8	0,010	0,006	0,980
20,9	0,011	0,010	0,962
21,0	0,012	0,012	0,945
21,1	0,012	0,010	1,015
21,2	0,013	0,006	0,962
21,3	0,013	-0,001	1,067
21,4	0,013	-0,008	0,980
21,5	0,013	-0,012	1,067
21,6	0,013	-0,012	0,962
21,7	0,013	-0,005	1,050
21,8	0,012	0,003	0,945
21,9	0,012	0,009	0,997
22,0	0,011	0,011	0,945
22,1	0,011	0,011	0,997
22,2	0,011	0,008	0,945
22,3	0,010	0,003	1,032
22,4	0,010	-0,003	0,962
22,5	0,009	-0,007	1,050
22,6	0,009	-0,009	0,980
22,7	0,009	-0,007	1,032
22,8	0,008	-0,002	0,945
22,9	0,008	0,004	1,050
23,0	0,008	0,008	0,945
23,1	0,008	0,009	1,015
23,2	0,008	0,006	0,980
23,3	0,008	0,002	1,085
23,4	0,008	-0,003	0,962
23,5	0,009	-0,006	1,067
23,6	0,009	-0,007	0,962
23,7	0,010	-0,006	1,015
23,8	0,011	-0,003	0,962
23,9	0,012	0,004	1,015
24,0	0,012	0,011	0,945
24,1	0,013	0,015	1,050
24,2	0,014	0,015	0,945
24,3	0,015	0,009	0,997
24,4	0,016	0,000	0,945
24,5	0,017	-0,009	1,102
24,6	0,018	-0,015	1,032
24,7	0,019	-0,017	1,085
24,8	0,020	-0,013	0,945
24,9	0,021	-0,003	1,050
25,0	0,022	0,009	0,945
25,1	0,022	0,020	0,962
25,2	0,023	0,024	0,962
25,3	0,023	0,021	1,015
25,4	0,023	0,013	0,980
25,5	0,024	0,001	1,085
25,6	0,024	-0,011	1,015
25,7	0,024	-0,020	1,102
25,8	0,023	-0,022	0,962
25,9	0,023	-0,018	0,997
26,0	0,023	-0,006	0,945
26,1	0,023	0,009	0,980
26,2	0,024	0,021	0,962
26,3	0,024	0,026	0,962
26,4	0,024	0,022	0,980
26,5	0,025	0,010	1,085
26,6	0,025	-0,003	0,980
26,7	0,026	-0,014	1,050
26,8	0,026	-0,021	0,997
26,9	0,025	-0,021	1,067
27,0	0,025	-0,015	0,945
27,1	0,023	-0,003	0,997
27,2	0,022	0,010	0,945
27,3	0,020	0,019	1,032
27,4	0,017	0,021	0,945
27,5	0,015	0,017	0,997
27,6	0,013	0,009	0,962
27,7	0,011	0,000	1,050
27,8	0,010	-0,007	0,997
27,9	0,010	-0,011	1,032
28,0	0,010	-0,010	0,980
28,1	0,011	-0,005	1,050
28,2	0,012	-0,001	0,945
28,3	0,013	0,001	0,962
28,4	0,013	0,001	0,962
28,5	0,013	0,000	0,962
28,6	0,011	-0,001	0,945
28,7	0,008	-0,002	0,980
28,8	0,004	-0,001	0,945
28,9	0,000	0,003	1,015
29,0	0,005	0,010	0,945
29,1	0,008	0,014	1,015
29,2	0,008	0,011	0,945
29,3	0,005	0,006	1,050
29,4	0,005	0,002	0,980
29,5	0,022	-0,007	1,050
29,6	0,048	-0,033	0,962
29,7	0,083	-0,064	1,085
29,8	0,127	-0,059	0,945
29,9	0,180	0,024	0,980
30,0	0,240	0,168	0,945
30,1	0,305	0,278	0,980
30,2	0,372	0,231	0,962
30,3	0,440	-0,016	1,067
30,4	0,505	-0,359	1,032
30,5	0,565	-0,594	1,102
30,6	0,616	-0,554	0,997
30,7	0,658	-0,227	1,015
30,8	0,690	0,226	0,945
30,9	0,711	0,587	0,945
31,0	0,721	0,711	0,945
31,1	0,721	0,585	0,980
31,2	0,712	0,291	0,980
31,3	0,696	-0,064	1,067
31,4	0,675	-0,386	0,980
31,5	0,650	-0,595	1,085
31,6	0,623	-0,626	1,032
31,7	0,594	-0,469	1,050
31,8	0,563	-0,187	0,997
31,9	0,533	0,109	0,945
32,0	0,502	0,329	0,945
32,1	0,470	0,434	0,997
32,2	0,437	0,427	0,945
32,3	0,404	0,323	0,997
32,4	0,370	0,147	0,980
32,5	0,335	-0,050	1,067
32,6	0,300	-0,199	0,980
32,7	0,264	-0,253	1,050
32,8	0,230	-0,220	1,015
32,9	0,197	-0,148	1,067
33,0	0,166	-0,081	0,945
33,1	0,139	-0,027	0,962
33,2	0,116	0,020	0,945
33,3	0,097	0,058	1,015
33,4	0,082	0,075	0,962
33,5	0,073	0,070	0,945
33,6	0,068	0,057	0,980
33,7	0,066	0,056	1,102
33,8	0,068	0,064	0,980
33,9	0,073	0,065	1,015
34,0	0,078	0,044	0,980
34,1	0,085	0,004	1,032
34,2	0,090	-0,040	0,997
34,3	0,095	-0,075	1,032
34,4	0,098	-0,093	0,997
34,5	0,099	-0,091	1,050
34,6	0,098	-0,067	0,962
34,7	0,094	-0,024	0,997
34,8	0,089	0,026	0,945
34,9	0,082	0,063	1,015
35,0	0,074	0,075	1,032
35,1	0,066	0,062	0,980
35,2	0,058	0,032	0,962
35,3	0,050	0,001	1,085
35,4	0,043	-0,022	0,980
35,5	0,037	-0,033	1,067
35,6	0,033	-0,028	1,032
35,7	0,030	-0,011	1,067
35,8	0,029	0,010	0,945
35,9	0,029	0,027	0,980
36,0	0,029	0,031	0,962
36,1	0,030	0,019	1,032
36,2	0,032	-0,001	0,980
36,3	0,034	-0,021	1,085
36,4	0,035	-0,033	0,962
36,5	0,035	-0,034	1,050
36,6	0,036	-0,025	0,962
36,7	0,035	-0,009	0,980
36,8	0,034	0,010	0,980
36,9	0,033	0,024	1,015
37,0	0,031	0,030	0,962
37,1	0,028	0,027	0,962
37,2	0,026	0,017	0,962
37,3	0,024	0,006	1,067
37,4	0,022	-0,004	1,015
37,5	0,020	-0,012	1,050
37,6	0,018	-0,017	0,997
37,7	0,017	-0,016	1,067
37,8	0,016	-0,011	0,945
37,9	0,016	-0,003	0,997
38,0	0,015	0,006	0,945
38,1	0,014	0,013	1,015
38,2	0,014	0,015	0,945
38,3	0,013	0,012	0,997
38,4	0,012	0,005	0,980
38,5	0,011	-0,002	1,102
38,6	0,010	-0,007	0,997
38,7	0,009	-0,008	1,067
38,8	0,008	-0,006	0,962
38,9	0,007	-0,002	1,067
39,0	0,006	0,001	0,945
39,1	0,005	0,003	0,997
39,2	0,004	0,003	0,962
39,3	0,004	0,003	1,032
39,4	0,004	0,003	0,962
39,5	0,004	0,004	1,067
39,6	0,004	0,004	0,962
39,7	0,004	0,004	1,032
39,8	0,004	0,004	0,997
39,9	0,005	0,003	1,050
40,0	0,005	0,000	0,997
40,1	0,005	-0,003	1,067
40,2	0,006	-0,005	0,997
40,3	0,006	-0,006	1,050
40,4	0,007	-0,005	0,980
40,5	0,007	-0,004	1,032
40,6	0,008	-0,002	0,945
40,7	0,009	0,001	0,962
40,8	0,009	0,005	0,980
40,9	0,010	0,009	0,997
41,0	0,011	0,012	0,945
41,1	0,011	0,011	1,015
41,2	0,012	0,008	0,980
41,3	0,012	0,003	1,032
41,4	0,013	-0,003	0,997
41,5	0,013	-0,009	1,067
41,6	0,014	-0,013	0,997
41,7	0,014	-0,013	1,085
41,8	0,015	-0,010	0,980
41,9	0,015	-0,002	0,997
42,0	0,015	0,006	0,945
42,1	0,015	0,013	1,032
42,2	0,015	0,015	0,962
42,3	0,015	0,013	0,997
42,4	0,015	0,008	1,015
42,5	0,014	0,001	1,050
42,6	0,014	-0,007	1,015
42,7	0,013	-0,011	1,067
42,8	0,012	-0,012	0,962
42,9	0,012	-0,008	1,032
43,0	0,011	-0,002	0,962
43,1	0,010	0,004	0,997
43,2	0,009	0,008	0,962
43,3	0,008	0,009	1,050
43,4	0,007	0,006	0,980
43,5	0,006	0,002	1,067
43,6	0,006	-0,002	1,015
43,7	0,005	-0,004	1,102
43,8	0,005	-0,003	0,980
43,9	0,005	0,000	1,067
44,0	0,005	0,004	0,962
44,1	0,005	0,006	1,015
44,2	0,006	0,005	0,945
44,3	0,007	0,001	1,050
44,4	0,007	-0,004	1,015
44,5	0,008	-0,008	1,067
44,6	0,009	-0,008	0,945
44,7	0,010	-0,005	1,050
44,8	0,011	0,001	0,945
44,9	0,011	0,007	1,067
45,0	0,012	0,012	0,945
45,1	0,013	0,012	0,980
45,2	0,013	0,009	0,945
45,3	0,014	0,003	1,085
45,4	0,014	-0,004	0,962
45,5	0,014	-0,010	1,050
45,6	0,014	-0,013	1,032
45,7	0,013	-0,012	1,085
45,8	0,013	-0,007	0,945
45,9	0,012	0,000	0,980
46,0	0,012	0,007	0,945
46,1	0,011	0,010	1,015
46,2	0,010	0,010	0,962
46,3	0,009	0,007	0,997
46,4	0,008	0,003	0,962
46,5	0,007	-0,001	1,067
46,6	0,007	-0,004	0,980
46,7	0,006	-0,005	1,032
46,8	0,006	-0,003	0,980
46,9	0,006	0,001	1,050
47,0	0,006	0,005	0,962
47,1	0,006	0,007	0,997
47,2	0,006	0,007	0,962
47,3	0,006	0,004	1,085
47,4	0,007	0,001	0,945
47,5	0,007	-0,003	1,032
47,6	0,008	-0,005	0,980
47,7	0,008	-0,007	1,050
47,8	0,009	-0,007	0,980
47,9	0,009	-0,005	0,997
48,0	0,009	-0,001	0,945
48,1	0,009	0,003	1,015
48,2	0,010	0,007	0,945
48,3	0,009	0,009	0,997
48,4	0,009	0,010	0,945
48,5	0,009	0,008	1,067
48,6	0,009	0,003	0,980
48,7	0,008	-0,002	1,085
48,8	0,007	-0,006	1,015
48,9	0,007	-0,006	1,067
49,0	0,006	-0,005	0,980
49,1	0,006	-0,003	0,997
49,2	0,005	0,000	0,945
49,3	0,005	0,002	0,980
49,4	0,005	0,003	0,962
49,5	0,005	0,004	1,032
49,6	0,004	0,005	0,980
49,7	0,004	0,005	1,085
49,8	0,004	0,004	0,962
49,9	0,004	0,002	1,032
50,0	0,004	-0,001	0,962
50,1	0,004	-0,003	1,067
50,2	0,004	-0,004	0,980
50,3	0,004	-0,002	1,050
50,4	0,004	0,001	0,945
50,5	0,004	0,003	1,015
50,6	0,004	0,004	0,945
50,7	0,004	0,004	1,032
50,8	0,004	0,002	0,980
50,9	0,004	-0,001	1,085
51,0	0,004	-0,003	0,945
51,1	0,004	-0,004	1,015
51,2	0,004	-0,003	0,962
51,3	0,004	0,000	1,102
51,4	0,004	0,002	0,945
51,5	0,004	0,003	0,997
51,6	0,004	0,004	0,962
51,7	0,004	0,004	1,050
51,8	0,004	0,004	0,945
51,9	0,004	0,003	1,067
52,0	0,004	0,002	1,015
52,1	0,004	0,000	1,102
52,2	0,004	-0,001	0,945
52,3	0,004	-0,003	1,067
52,4	0,004	-0,003	0,980
52,5	0,004	-0,002	1,050
52,6	0,004	0,000	0,945
52,7	0,004	0,002	0,962
52,8	0,004	0,004	0,945
52,9	0,004	0,004	1,050
53,0	0,004	0,004	0,962
53,1	0,004	0,003	0,997
53,2	0,004	0,000	0,962
53,3	0,004	-0,002	1,102
53,4	0,004	-0,004	0,962
53,5	0,004	-0,004	1,015
53,6	0,004	-0,002	0,962
53,7	0,005	0,000	1,015
53,8	0,005	0,002	0,962
53,9	0,005	0,004	0,997
54,0	0,005	0,005	0,945
54,1	0,005	0,005	1,032
54,2	0,005	0,004	0,980
54,3	0,005	0,002	1,050
54,4	0,005	0,000	0,980
54,5	0,005	-0,002	1,067
54,6	0,005	-0,004	0,962
54,7	0,005	-0,005	1,085
54,8	0,004	-0,003	0,980
54,9	0,004	-0,001	0,997
55,0	0,004	0,002	0,962
55,1	0,004	0,003	0,962
55,2	0,004	0,004	1,102
55,3	0,004	0,004	1,260
55,4	0,005	0,003	3,150
55,5	0,005	0,002	5,529
55,6	0,005	0,000	7,244
55,7	0,006	-0,002	8,504
55,8	0,006	-0,005	9,291
55,9	0,006	-0,006	9,921
56,0	0,006	-0,005	10,394
56,1	0,006	-0,003	10,709
56,2	0,006	0,001	11,024
56,3	0,005	0,004	11,356
56,4	0,005	0,005	11,654
56,5	0,004	0,003	11,986
56,6	0,003	0,002	12,283
56,7	0,003	0,001	12,598
56,8	0,003	0,002	12,808
56,9	0,003	0,004	13,071
57,0	0,003	0,006	13,386
57,1	0,005	0,007	13,701
57,2	0,007	0,005	13,928
57,3	0,010	0,000	14,191
57,4	0,014	-0,006	14,488
57,5	0,018	-0,013	14,786
57,6	0,023	-0,019	14,961
57,7	0,027	-0,021	15,276
57,8	0,032	-0,015	15,591
57,9	0,035	-0,002	15,783
58,0	0,038	0,016	16,063
58,1	0,039	0,031	16,378
58,2	0,039	0,039	16,658
58,3	0,038	0,037	16,885
58,4	0,035	0,024	17,165
58,5	0,033	0,004	17,480
58,6	0,030	-0,017	17,655
58,7	0,028	-0,032	17,953
58,8	0,028	-0,036	18,268
58,9	0,030	-0,024	18,583
59,0	0,034	0,000	18,758
59,1	0,043	0,023	19,090
59,2	0,054	0,026	19,370
59,3	0,070	-0,007	19,685
59,4	0,090	-0,065	19,843
59,5	0,112	-0,108	20,157
59,6	0,137	-0,090	20,472
59,7	0,164	0,002	20,647
59,8	0,192	0,132	20,927
59,9	0,220	0,231	21,260
60,0	0,248	0,240	21,487
60,1	0,275	0,148	21,785
60,2	0,301	-0,009	22,047
60,3	0,325	-0,177	22,362
60,4	0,347	-0,304	22,590
60,5	0,367	-0,355	22,835
60,6	0,386	-0,308	23,150
60,7	0,403	-0,168	23,395
60,8	0,418	0,035	23,622
60,9	0,432	0,244	23,937
61,0	0,444	0,400	24,217
61,1	0,455	0,458	24,427
61,2	0,464	0,405	24,724
61,3	0,470	0,256	25,039
61,4	0,474	0,048	25,337
61,5	0,476	-0,171	25,599
61,6	0,475	-0,353	25,827
61,7	0,472	-0,456	26,142
61,8	0,466	-0,460	26,404
61,9	0,457	-0,363	26,614
62,0	0,446	-0,194	26,929
62,1	0,434	0,001	27,157
62,2	0,420	0,179	27,402
62,3	0,406	0,308	27,717
62,4	0,392	0,375	27,979
62,5	0,379	0,375	28,241
62,6	0,366	0,311	28,504
62,7	0,355	0,194	28,819
62,8	0,345	0,050	29,081
62,9	0,337	-0,091	29,309
63,0	0,331	-0,204	29,606
63,1	0,325	-0,278	29,921
63,2	0,321	-0,311	30,079
63,3	0,317	-0,298	30,394
63,4	0,312	-0,231	30,831
63,5	0,306	-0,118	30,849
63,6	0,299	0,020	30,709
63,7	0,289	0,150	30,709
63,8	0,277	0,238	30,709
63,9	0,262	0,263	30,709
64,0	0,244	0,222	30,709
64,1	0,225	0,132	30,709
64,2	0,204	0,022	30,709
64,3	0,182	-0,077	30,709
64,4	0,160	-0,137	30,709
64,5	0,139	-0,142	30,709
64,6	0,120	-0,094	30,709
64,7	0,104	-0,017	30,709
64,8	0,092	0,050	30,709
64,9	0,084	0,075	30,709
65,0	0,080	0,051	30,709
65,1	0,081	-0,002	30,709
65,2	0,087	-0,055	30,691
65,3	0,096	-0,092	30,709
65,4	0,108	-0,108	30,691
65,5	0,122	-0,099	30,709
65,6	0,137	-0,060	30,691
65,7	0,153	0,005	30,709
65,8	0,168	0,083	30,621
65,9	0,181	0,152	30,709
66,0	0,192	0,192	30,586
66,1	0,201	0,188	30,674
66,2	0,207	0,134	30,621
66,3	0,210	0,040	30,656
66,4	0,211	-0,067	30,621
66,5	0,210	-0,150	30,656
66,6	0,207	-0,192	30,586
66,7	0,203	-0,192	30,639
66,8	0,198	-0,162	30,569
66,9	0,192	-0,108	30,639
67,0	0,186	-0,031	30,551
67,1	0,180	0,054	30,586
67,2	0,175	0,122	30,551
67,3	0,169	0,156	30,604
67,4	0,163	0,157	30,569
67,5	0,157	0,136	30,621
67,6	0,151	0,098	30,551
67,7	0,145	0,038	30,656
67,8	0,139	-0,035	30,551
67,9	0,132	-0,097	30,551
68,0	0,126	-0,125	30,569
68,1	0,120	-0,116	30,621
68,2	0,114	-0,090	30,551
68,3	0,109	-0,063	30,551
68,4	0,105	-0,034	30,551
68,5	0,101	0,004	30,551
68,6	0,099	0,048	30,551
68,7	0,097	0,083	30,569
68,8	0,096	0,095	30,551
68,9	0,096	0,088	30,551
69,0	0,095	0,067	30,551
69,1	0,095	0,033	30,551
69,2	0,096	-0,017	30,551
69,3	0,095	-0,069	30,551
69,4	0,095	-0,101	30,551
69,5	0,094	-0,095	30,551
69,6	0,093	-0,058	30,551
69,7	0,092	-0,011	30,551
69,8	0,091	0,027	30,551
69,9	0,090	0,055	30,551
70,0	0,089	0,077	30,551
70,1	0,088	0,086	30,551
70,2	0,087	0,068	30,551
70,3	0,087	0,019	30,551
70,4	0,087	-0,040	30,551
70,5	0,086	-0,080	30,551
70,6	0,086	-0,084	30,551
70,7	0,085	-0,058	30,551
70,8	0,083	-0,017	30,551
70,9	0,081	0,026	30,551
71,0	0,078	0,060	30,551
71,1	0,074	0,075	30,551
71,2	0,070	0,060	30,551
71,3	0,065	0,019	30,551
71,4	0,061	-0,027	30,551
71,5	0,056	-0,057	30,551
71,6	0,053	-0,058	30,551
71,7	0,050	-0,037	30,551
71,8	0,048	-0,012	30,551
71,9	0,047	0,007	30,551
72,0	0,048	0,018	30,551
72,1	0,049	0,027	30,551
72,2	0,051	0,039	30,551
72,3	0,054	0,050	30,551
72,4	0,057	0,052	30,551
72,5	0,059	0,039	30,551
72,6	0,060	0,011	30,551
72,7	0,060	-0,022	30,551
72,8	0,059	-0,053	30,551
72,9	0,057	-0,068	30,551
73,0	0,054	-0,059	30,551
73,1	0,049	-0,030	30,551
73,2	0,044	0,004	30,551
73,3	0,039	0,019	30,551
73,4	0,034	0,010	30,551
73,5	0,029	-0,009	30,551
73,6	0,025	-0,014	30,551
73,7	0,022	0,001	30,551
73,8	0,020	0,020	30,551
73,9	0,019	0,028	30,551
74,0	0,019	0,021	30,551
74,1	0,020	0,009	30,551
74,2	0,021	-0,003	30,551
74,3	0,022	-0,015	30,551
74,4	0,023	-0,025	30,551
74,5	0,025	-0,026	30,569
74,6	0,027	-0,015	30,551
74,7	0,028	-0,001	30,551
74,8	0,030	0,008	30,551
74,9	0,033	0,015	30,551
75,0	0,035	0,026	30,551
75,1	0,038	0,038	30,551
75,2	0,041	0,039	30,551
75,3	0,044	0,020	30,551
75,4	0,047	-0,008	30,551
75,5	0,050	-0,032	30,551
75,6	0,052	-0,044	30,551
75,7	0,054	-0,049	30,551
75,8	0,055	-0,046	30,551
75,9	0,054	-0,030	30,551
76,0	0,053	0,000	30,551
76,1	0,050	0,032	30,551
76,2	0,047	0,047	30,551
76,3	0,043	0,041	30,551
76,4	0,038	0,023	30,551
76,5	0,033	0,002	30,551
76,6	0,028	-0,014	30,551
76,7	0,024	-0,023	30,551
76,8	0,021	-0,022	30,551
76,9	0,020	-0,010	30,551
77,0	0,019	0,006	30,551
77,1	0,021	0,017	30,551
77,2	0,023	0,019	30,551
77,3	0,027	0,018	30,551
77,4	0,033	0,014	30,551
77,5	0,038	0,004	30,551
77,6	0,044	-0,018	30,551
77,7	0,049	-0,045	30,551
77,8	0,054	-0,061	30,551
77,9	0,057	-0,055	30,534
78,0	0,060	-0,029	30,551
78,1	0,060	0,004	30,551
78,2	0,059	0,030	30,534
78,3	0,056	0,043	30,551
78,4	0,052	0,045	30,551
78,5	0,047	0,041	30,551
78,6	0,041	0,030	30,551
78,7	0,035	0,012	30,551
78,8	0,030	-0,009	30,551
78,9	0,024	-0,024	30,551
79,0	0,020	-0,023	30,551
79,1	0,017	-0,010	30,551
79,2	0,014	0,003	30,551
79,3	0,013	0,006	30,551
79,4	0,012	0,003	30,534
79,5	0,013	0,004	30,551
79,6	0,013	0,010	30,551
79,7	0,014	0,013	30,551
79,8	0,015	0,005	30,551
79,9	0,016	-0,013	30,551
80,0	0,017	-0,025	30,551
80,1	0,017	-0,022	30,551
80,2	0,018	-0,006	30,551
80,3	0,018	0,010	30,551
80,4	0,019	0,016	30,534
80,5	0,021	0,008	30,551
80,6	0,023	-0,007	30,551
80,7	0,026	-0,016	30,551
80,8	0,029	-0,012	30,551
80,9	0,033	0,007	30,551
81,0	0,037	0,032	30,551
81,1	0,042	0,045	30,551
81,2	0,046	0,033	30,551
81,3	0,050	-0,001	30,551
81,4	0,054	-0,039	30,534
81,5	0,056	-0,060	30,551
81,6	0,058	-0,052	30,551
81,7	0,058	-0,019	30,551
81,8	0,058	0,021	30,551
81,9	0,057	0,048	30,551
82,0	0,055	0,051	30,551
82,1	0,052	0,034	30,551
82,2	0,049	0,008	30,551
82,3	0,046	-0,014	30,551
82,4	0,043	-0,029	30,551
82,5	0,040	-0,035	30,551
82,6	0,037	-0,036	30,551
82,7	0,033	-0,030	30,551
82,8	0,030	-0,016	30,534
82,9	0,027	0,002	30,551
83,0	0,024	0,018	30,551
83,1	0,021	0,025	30,551
83,2	0,019	0,019	30,551
83,3	0,016	0,006	30,551
83,4	0,014	-0,002	30,551
83,5	0,012	0,000	30,551
83,6	0,011	0,006	30,551
83,7	0,010	0,010	30,551
83,8	0,009	0,009	30,534
83,9	0,009	0,007	30,551
84,0	0,009	0,006	30,551
84,1	0,009	0,005	30,551
84,2	0,010	-0,002	30,551
84,3	0,010	-0,011	30,551
84,4	0,011	-0,015	30,551
84,5	0,011	-0,009	30,551
84,6	0,011	0,000	30,534
84,7	0,011	0,003	30,551
84,8	0,010	-0,001	30,534
84,9	0,010	-0,006	30,551
85,0	0,010	-0,004	30,516
85,1	0,010	0,005	30,551
85,2	0,010	0,013	30,534
85,3	0,011	0,015	30,551
85,4	0,013	0,012	30,551
85,5	0,016	0,009	30,551
85,6	0,021	0,005	30,551
85,7	0,026	-0,003	30,551
85,8	0,032	-0,019	30,551
85,9	0,039	-0,037	30,551
86,0	0,047	-0,048	30,534
86,1	0,056	-0,045	30,551
86,2	0,065	-0,028	30,551
86,3	0,073	-0,002	30,551
86,4	0,081	0,031	30,534
86,5	0,089	0,067	30,551
86,6	0,095	0,095	30,516
86,7	0,100	0,101	30,551
86,8	0,104	0,076	30,551
86,9	0,106	0,027	30,534
87,0	0,106	-0,025	30,551
87,1	0,105	-0,065	30,551
87,2	0,103	-0,091	30,534
87,3	0,100	-0,100	30,551
87,4	0,096	-0,089	30,516
87,5	0,091	-0,054	30,499
87,6	0,086	-0,009	30,534
87,7	0,081	0,025	30,534
87,8	0,076	0,037	30,534
87,9	0,071	0,042	30,551
88,0	0,067	0,055	30,534
88,1	0,063	0,072	30,551
88,2	0,060	0,068	30,534
88,3	0,058	0,031	30,551
88,4	0,056	-0,020	30,551
88,5	0,056	-0,051	30,551
88,6	0,056	-0,041	30,551
88,7	0,058	-0,001	30,534
88,8	0,061	0,038	30,516
88,9	0,065	0,054	30,551
89,0	0,070	0,036	30,481
89,1	0,076	-0,009	30,551
89,2	0,084	-0,064	30,551
89,3	0,092	-0,102	30,551
89,4	0,101	-0,104	30,551
89,5	0,111	-0,073	30,551
89,6	0,121	-0,026	30,499
89,7	0,132	0,023	30,551
89,8	0,142	0,076	30,516
89,9	0,152	0,129	30,551
90,0	0,160	0,162	30,516
90,1	0,168	0,151	30,551
90,2	0,175	0,090	30,551
90,3	0,181	-0,001	30,551
90,4	0,185	-0,091	30,551
90,5	0,187	-0,158	30,551
90,6	0,188	-0,187	30,534
90,7	0,188	-0,169	30,534
90,8	0,186	-0,103	30,481
90,9	0,184	-0,007	30,551
91,0	0,180	0,084	30,516
91,1	0,175	0,141	30,551
91,2	0,170	0,159	30,516
91,3	0,164	0,147	30,551
91,4	0,158	0,116	30,516
91,5	0,151	0,065	30,534
91,6	0,144	-0,001	30,534
91,7	0,137	-0,065	30,534
91,8	0,130	-0,111	30,551
91,9	0,123	-0,129	30,551
92,0	0,116	-0,119	30,499
92,1	0,110	-0,090	30,534
92,2	0,104	-0,049	30,499
92,3	0,099	-0,008	30,551
92,4	0,095	0,022	30,551
92,5	0,091	0,041	30,551
92,6	0,088	0,056	30,534
92,7	0,085	0,074	30,551
92,8	0,083	0,087	30,499
92,9	0,080	0,083	30,551
93,0	0,078	0,058	30,534
93,1	0,075	0,021	30,551
93,2	0,072	-0,015	30,516
93,3	0,068	-0,040	30,551
93,4	0,064	-0,052	30,516
93,5	0,059	-0,052	30,516
93,6	0,054	-0,046	30,499
93,7	0,049	-0,038	30,534
93,8	0,043	-0,030	30,481
93,9	0,038	-0,021	30,516
94,0	0,034	-0,008	30,516
94,1	0,030	0,003	30,534
94,2	0,027	0,011	30,499
94,3	0,025	0,015	30,534
94,4	0,025	0,021	30,499
94,5	0,025	0,027	30,551
94,6	0,027	0,030	30,516
94,7	0,029	0,027	30,534
94,8	0,032	0,024	30,481
94,9	0,036	0,025	30,551
95,0	0,040	0,024	30,534
95,1	0,044	0,012	30,534
95,2	0,048	-0,011	30,499
95,3	0,051	-0,034	30,551
95,4	0,053	-0,046	30,516
95,5	0,054	-0,048	30,551
95,6	0,055	-0,047	30,481
95,7	0,054	-0,038	30,499
95,8	0,052	-0,013	30,429
95,9	0,049	0,025	30,534
96,0	0,046	0,054	30,481
96,1	0,043	0,054	30,551
96,2	0,041	0,027	30,516
96,3	0,038	0,000	30,551
96,4	0,037	-0,003	30,534
96,5	0,036	0,015	30,551
96,6	0,036	0,028	30,481
96,7	0,036	0,021	30,551
96,8	0,037	-0,004	30,499
96,9	0,038	-0,031	30,551
97,0	0,039	-0,047	30,516
97,1	0,039	-0,047	30,534
97,2	0,039	-0,034	30,464
97,3	0,038	-0,015	30,534
97,4	0,037	0,006	30,446
97,5	0,034	0,021	30,534
97,6	0,032	0,026	30,446
97,7	0,029	0,021	30,516
97,8	0,026	0,013	30,534
97,9	0,023	0,008	30,516
98,0	0,021	0,011	30,516
98,1	0,019	0,020	30,551
98,2	0,017	0,023	30,481
98,3	0,016	0,012	30,551
98,4	0,016	-0,006	30,499
98,5	0,015	-0,018	30,534
98,6	0,015	-0,016	30,499
98,7	0,015	-0,007	30,499
98,8	0,015	-0,004	30,481
98,9	0,015	-0,009	30,534
99,0	0,014	-0,011	30,446
99,1	0,014	-0,002	30,499
99,2	0,014	0,012	30,446
99,3	0,014	0,016	30,534
99,4	0,014	0,011	30,446
99,5	0,014	0,007	30,534
99,6	0,014	0,011	30,516
99,7	0,015	0,016	30,551
99,8	0,015	0,013	30,499
99,9	0,016	0,003	30,534
100,0	0,017	-0,003	30,499
100,1	0,018	-0,002	30,534
100,2	0,019	-0,001	30,481
100,3	0,019	-0,007	30,499
100,4	0,020	-0,019	30,446
100,5	0,019	-0,026	30,516
100,6	0,019	-0,023	30,499
100,7	0,018	-0,014	30,516
100,8	0,017	-0,004	30,481
100,9	0,016	0,004	30,534
101,0	0,015	0,009	30,464
101,1	0,014	0,007	30,516
101,2	0,014	0,001	30,464
101,3	0,014	-0,001	30,516
101,4	0,014	0,008	30,429
101,5	0,015	0,020	30,516
101,6	0,016	0,022	30,464
101,7	0,017	0,009	30,534
101,8	0,018	-0,006	30,516
101,9	0,020	-0,011	30,534
102,0	0,021	-0,010	30,464
102,1	0,022	-0,013	30,534
102,2	0,023	-0,022	30,516
102,3	0,023	-0,024	30,481
102,4	0,023	-0,012	30,499
102,5	0,022	0,008	30,551
102,6	0,021	0,020	30,464
102,7	0,020	0,018	30,464
102,8	0,019	0,011	30,464
102,9	0,017	0,009	30,499
103,0	0,015	0,011	30,481
103,1	0,013	0,010	30,499
103,2	0,012	0,004	30,481
103,3	0,010	-0,004	30,516
103,4	0,009	-0,009	30,481
103,5	0,008	-0,010	30,534
103,6	0,007	-0,008	30,429
103,7	0,006	-0,004	30,499
103,8	0,006	-0,001	30,464
103,9	0,006	-0,002	30,481
104,0	0,007	-0,006	30,446
104,1	0,007	-0,008	30,516
104,2	0,008	-0,005	30,394
104,3	0,009	0,001	30,481
104,4	0,011	0,005	30,411
104,5	0,012	0,009	30,516
104,6	0,014	0,013	30,446
104,7	0,015	0,013	30,499
104,8	0,017	0,003	30,481
104,9	0,019	-0,011	30,499
105,0	0,020	-0,015	30,464
105,1	0,021	0,000	30,516
105,2	0,022	0,020	30,429
105,3	0,022	0,024	30,464
105,4	0,022	0,008	30,429
105,5	0,021	-0,013	30,499
105,6	0,020	-0,020	30,464
105,7	0,019	-0,015	30,534
105,8	0,017	-0,010	30,481
105,9	0,015	-0,007	30,481
106,0	0,014	-0,002	30,464
106,1	0,012	0,007	30,481
106,2	0,011	0,011	30,429
106,3	0,010	0,004	30,516
106,4	0,009	-0,006	30,499
106,5	0,009	-0,006	30,534
106,6	0,008	0,004	30,394
106,7	0,008	0,010	30,516
106,8	0,009	0,005	30,446
106,9	0,009	-0,004	30,464
107,0	0,009	-0,003	30,411
107,1	0,010	0,006	30,481
107,2	0,011	0,011	30,464
107,3	0,011	0,010	30,534
107,4	0,012	0,009	30,464
107,5	0,013	0,014	30,481
107,6	0,014	0,017	30,394
107,7	0,015	0,008	30,499
107,8	0,017	-0,007	30,464
107,9	0,018	-0,016	30,481
108,0	0,020	-0,013	30,464
108,1	0,021	-0,002	30,516
108,2	0,023	0,007	30,411
108,3	0,024	0,015	30,481
108,4	0,025	0,023	30,411
108,5	0,025	0,025	30,499
108,6	0,025	0,012	30,446
108,7	0,024	-0,010	30,464
108,8	0,023	-0,026	30,429
108,9	0,021	-0,023	30,481
109,0	0,019	-0,008	30,464
109,1	0,017	0,006	30,499
109,2	0,015	0,009	30,411
109,3	0,013	0,008	30,481
109,4	0,012	0,008	30,411
109,5	0,012	0,011	30,446
109,6	0,012	0,011	30,464
109,7	0,012	0,009	30,499
109,8	0,014	0,007	30,446
109,9	0,015	0,007	30,464
110,0	0,017	0,004	30,411
110,1	0,019	-0,003	30,499
110,2	0,021	-0,012	30,429
110,3	0,022	-0,021	30,464
110,4	0,024	-0,026	30,464
110,5	0,024	-0,026	30,464
110,6	0,024	-0,017	30,411
110,7	0,024	-0,001	30,446
110,8	0,024	0,013	30,411
110,9	0,023	0,017	30,499
111,0	0,022	0,013	30,429
111,1	0,021	0,011	30,464
111,2	0,021	0,015	30,481
111,3	0,020	0,019	30,499
111,4	0,020	0,016	30,446
111,5	0,020	0,006	30,481
111,6	0,020	-0,004	30,464
111,7	0,020	-0,011	30,516
111,8	0,020	-0,018	30,446
111,9	0,020	-0,025	30,516
112,0	0,021	-0,023	30,429
112,1	0,021	-0,008	30,499
112,2	0,023	0,011	30,429
112,3	0,024	0,019	30,429
112,4	0,026	0,009	30,411
112,5	0,028	-0,011	30,499
112,6	0,030	-0,026	30,446
112,7	0,033	-0,025	30,446
112,8	0,036	-0,008	30,429
112,9	0,039	0,019	30,499
113,0	0,041	0,042	30,394
113,1	0,043	0,043	30,446
113,2	0,044	0,015	30,481
113,3	0,044	-0,023	30,464
113,4	0,043	-0,041	30,429
113,5	0,042	-0,023	30,499
113,6	0,040	0,014	30,411
113,7	0,036	0,037	30,499
113,8	0,033	0,029	30,429
113,9	0,029	0,002	30,411
114,0	0,025	-0,019	30,429
114,1	0,022	-0,022	30,516
114,2	0,019	-0,013	30,464
114,3	0,016	-0,002	30,481
114,4	0,014	0,003	30,429
114,5	0,013	0,002	30,481
114,6	0,012	-0,003	30,394
114,7	0,012	-0,005	30,429
114,8	0,012	0,000	30,394
114,9	0,012	0,012	30,446
115,0	0,013	0,023	30,394
115,1	0,014	0,024	30,411
115,2	0,015	0,017	30,411
115,3	0,017	0,006	30,516
115,4	0,018	-0,004	30,429
115,5	0,020	-0,010	30,516
115,6	0,022	-0,008	30,464
115,7	0,025	-0,002	30,446
115,8	0,028	-0,003	30,394
115,9	0,031	-0,019	30,446
116,0	0,034	-0,039	30,429
116,1	0,037	-0,042	30,481
116,2	0,040	-0,017	30,394
116,3	0,043	0,019	30,411
116,4	0,044	0,040	30,394
116,5	0,045	0,041	30,429
116,6	0,045	0,035	30,429
116,7	0,045	0,036	30,499
116,8	0,043	0,034	30,446
116,9	0,041	0,021	30,516
117,0	0,039	0,000	30,411
117,1	0,036	-0,012	30,464
117,2	0,033	-0,013	30,429
117,3	0,030	-0,016	30,499
117,4	0,027	-0,028	30,394
117,5	0,024	-0,035	30,429
117,6	0,022	-0,024	30,411
117,7	0,021	-0,001	30,464
117,8	0,019	0,013	30,429
117,9	0,018	0,010	30,411
118,0	0,018	0,005	30,411
118,1	0,017	0,007	30,499
118,2	0,017	0,011	30,429
118,3	0,016	0,003	30,481
118,4	0,016	-0,013	30,394
118,5	0,015	-0,018	30,464
118,6	0,014	-0,003	30,411
118,7	0,013	0,017	30,446
118,8	0,013	0,021	30,411
118,9	0,012	0,009	30,464
119,0	0,013	-0,004	30,429
119,1	0,013	-0,005	30,481
119,2	0,015	0,001	30,429
119,3	0,017	0,003	30,464
119,4	0,020	-0,004	30,411
119,5	0,024	-0,016	30,429
119,6	0,028	-0,026	30,429
119,7	0,031	-0,027	30,464
119,8	0,035	-0,014	30,429
119,9	0,038	0,011	30,429
120,0	0,040	0,035	30,446
120,1	0,040	0,044	30,481
120,2	0,040	0,030	30,394
120,3	0,038	0,002	30,481
120,4	0,036	-0,023	30,394
120,5	0,032	-0,034	30,481
120,6	0,028	-0,028	30,411
120,7	0,024	-0,013	30,446
120,8	0,020	0,000	30,446
120,9	0,017	0,005	30,446
121,0	0,014	0,001	30,394
121,1	0,012	-0,003	30,429
121,2	0,011	-0,003	30,411
121,3	0,012	0,003	30,464
121,4	0,012	0,009	30,411
121,5	0,014	0,014	30,446
121,6	0,015	0,018	30,394
121,7	0,017	0,021	30,446
121,8	0,018	0,017	30,394
121,9	0,019	0,003	30,464
122,0	0,019	-0,012	30,446
122,1	0,019	-0,019	30,464
122,2	0,018	-0,014	30,411
122,3	0,016	-0,006	30,464
122,4	0,015	-0,004	30,464
122,5	0,013	-0,008	30,429
122,6	0,012	-0,011	30,411
122,7	0,010	-0,008	30,446
122,8	0,009	-0,001	30,429
122,9	0,008	0,005	30,464
123,0	0,008	0,009	30,394
123,1	0,008	0,009	30,446
123,2	0,008	0,005	30,411
123,3	0,008	-0,003	30,429
123,4	0,009	-0,007	30,394
123,5	0,009	-0,005	30,464
123,6	0,009	0,003	30,411
123,7	0,009	0,008	30,481
123,8	0,009	0,009	30,394
123,9	0,009	0,008	30,411
124,0	0,009	0,005	30,411
124,1	0,009	-0,001	30,446
124,2	0,010	-0,009	30,429
124,3	0,011	-0,014	30,464
124,4	0,012	-0,012	30,411
124,5	0,013	-0,006	30,429
124,6	0,015	-0,004	30,411
124,7	0,017	-0,008	30,446
124,8	0,019	-0,010	30,394
124,9	0,021	-0,002	30,446
125,0	0,023	0,011	30,411
125,1	0,024	0,019	30,394
125,2	0,025	0,023	30,411
125,3	0,025	0,025	30,464
125,4	0,024	0,026	30,411
125,5	0,022	0,021	30,534
125,6	0,020	0,007	30,394
125,7	0,018	-0,009	30,516
125,8	0,016	-0,015	30,411
125,9	0,014	-0,010	30,429
126,0	0,012	-0,002	30,394
126,1	0,011	0,000	30,411
126,2	0,010	-0,003	30,394
126,3	0,010	-0,003	30,429
126,4	0,010	0,003	30,394
126,5	0,011	0,011	30,446
126,6	0,012	0,015	30,394
126,7	0,013	0,015	30,464
126,8	0,013	0,010	30,394
126,9	0,014	-0,001	30,394
127,0	0,014	-0,012	30,411
127,1	0,014	-0,016	30,429
127,2	0,013	-0,011	30,429
127,3	0,012	-0,003	30,464
127,4	0,012	-0,002	30,394
127,5	0,012	-0,008	30,446
127,6	0,012	-0,012	30,429
127,7	0,012	-0,008	30,429
127,8	0,013	0,004	30,429
127,9	0,015	0,014	30,411
128,0	0,017	0,016	30,429
128,1	0,020	0,010	30,516
128,2	0,022	-0,002	30,394
128,3	0,025	-0,017	30,429
128,4	0,027	-0,025	30,411
128,5	0,029	-0,016	30,429
128,6	0,030	0,010	30,411
128,7	0,031	0,033	30,446
128,8	0,031	0,035	30,394
128,9	0,030	0,012	30,464
129,0	0,029	-0,017	30,394
129,1	0,028	-0,028	30,411
129,2	0,027	-0,016	30,411
129,3	0,025	0,004	30,464
129,4	0,025	0,013	30,411
129,5	0,024	0,007	30,394
129,6	0,024	-0,010	30,394
129,7	0,024	-0,025	30,464
129,8	0,025	-0,028	30,394
129,9	0,025	-0,016	30,481
130,0	0,026	0,005	30,411
130,1	0,026	0,023	30,446
130,2	0,026	0,028	30,394
130,3	0,026	0,021	30,429
130,4	0,025	0,010	30,394
130,5	0,024	0,003	30,429
130,6	0,022	-0,004	30,394
130,7	0,020	-0,013	30,446
130,8	0,018	-0,020	30,411
130,9	0,016	-0,019	30,429
131,0	0,015	-0,009	30,394
131,1	0,014	0,001	30,411
131,2	0,013	0,003	30,394
131,3	0,013	0,002	30,499
131,4	0,013	0,005	30,394
131,5	0,014	0,014	30,411
131,6	0,016	0,020	30,394
131,7	0,017	0,018	30,411
131,8	0,019	0,012	30,411
131,9	0,021	0,005	30,446
132,0	0,023	0,000	30,429
132,1	0,024	-0,006	30,481
132,2	0,025	-0,014	30,394
132,3	0,025	-0,023	30,446
132,4	0,025	-0,026	30,394
132,5	0,024	-0,024	30,446
132,6	0,022	-0,017	30,394
132,7	0,020	-0,007	30,394
132,8	0,018	0,003	30,394
132,9	0,016	0,010	30,429
133,0	0,014	0,010	30,394
133,1	0,012	0,006	30,429
133,2	0,010	0,001	30,411
133,3	0,008	0,002	30,446
133,4	0,008	0,009	30,394
133,5	0,007	0,014	30,429
133,6	0,008	0,008	30,411
133,7	0,009	-0,004	30,446
133,8	0,010	-0,011	30,411
133,9	0,012	-0,008	30,411
134,0	0,014	0,000	30,394
134,1	0,017	0,000	30,429
134,2	0,019	-0,012	30,394
134,3	0,022	-0,022	30,429
134,4	0,024	-0,018	30,394
134,5	0,025	0,001	30,464
134,6	0,026	0,020	30,411
134,7	0,027	0,029	30,394
134,8	0,028	0,027	30,394
134,9	0,028	0,023	30,446
135,0	0,028	0,018	30,394
135,1	0,027	0,008	30,446
135,2	0,027	-0,009	30,394
135,3	0,027	-0,021	30,429
135,4	0,026	-0,018	30,411
135,5	0,026	0,001	30,429
135,6	0,026	0,021	30,411
135,7	0,027	0,027	30,446
135,8	0,027	0,014	30,394
135,9	0,027	-0,009	30,411
136,0	0,028	-0,028	30,429
136,1	0,029	-0,032	30,429
136,2	0,029	-0,019	30,394
136,3	0,030	0,005	30,446
136,4	0,030	0,024	30,411
136,5	0,030	0,024	30,464
136,6	0,030	0,006	30,394
136,7	0,029	-0,016	30,411
136,8	0,029	-0,024	30,394
136,9	0,028	-0,013	30,429
137,0	0,026	0,009	30,394
137,1	0,025	0,025	30,429
137,2	0,023	0,026	30,394
137,3	0,021	0,012	30,429
137,4	0,020	-0,005	30,411
137,5	0,018	-0,017	30,464
137,6	0,018	-0,020	30,394
137,7	0,017	-0,017	30,464
137,8	0,017	-0,012	30,394
137,9	0,018	-0,008	30,411
138,0	0,019	-0,006	30,394
138,1	0,020	-0,007	30,429
138,2	0,022	-0,010	30,394
138,3	0,023	-0,007	30,446
138,4	0,024	0,008	30,394
138,5	0,025	0,028	30,429
138,6	0,025	0,036	30,394
138,7	0,024	0,021	30,429
138,8	0,023	-0,005	30,394
138,9	0,022	-0,022	30,429
139,0	0,020	-0,021	30,394
139,1	0,018	-0,010	30,481
139,2	0,016	-0,004	30,394
139,3	0,015	-0,003	30,411
139,4	0,014	0,000	30,411
139,5	0,014	0,005	30,411
139,6	0,015	0,003	30,394
139,7	0,016	-0,010	30,464
139,8	0,018	-0,019	30,394
139,9	0,020	-0,011	30,429
140,0	0,021	0,013	30,394
140,1	0,022	0,032	30,411
140,2	0,023	0,027	30,394
140,3	0,023	0,004	30,394
140,4	0,022	-0,015	30,411
140,5	0,021	-0,016	30,429
140,6	0,019	-0,003	30,394
140,7	0,017	0,007	30,446
140,8	0,015	0,004	30,394
140,9	0,013	-0,007	30,429
141,0	0,011	-0,013	30,411
141,1	0,010	-0,008	30,411
141,2	0,010	0,004	30,394
141,3	0,010	0,011	30,446
141,4	0,011	0,008	30,411
141,5	0,012	-0,001	30,394
141,6	0,013	-0,009	30,394
141,7	0,015	-0,014	30,446
141,8	0,016	-0,015	30,394
141,9	0,018	-0,012	30,429
142,0	0,019	-0,002	30,411
142,1	0,020	0,013	30,411
142,2	0,021	0,021	30,394
142,3	0,021	0,014	30,394
142,4	0,021	-0,005	30,394
142,5	0,021	-0,020	30,446
142,6	0,021	-0,021	30,411
142,7	0,020	-0,011	30,446
142,8	0,020	0,002	30,411
142,9	0,019	0,011	30,394
143,0	0,019	0,016	30,394
143,1	0,018	0,013	30,394
143,2	0,017	0,002	30,394
143,3	0,016	-0,010	30,446
143,4	0,016	-0,013	30,394
143,5	0,015	-0,001	30,394
143,6	0,014	0,016	30,411
143,7	0,014	0,023	30,394
143,8	0,014	0,015	30,394
143,9	0,014	0,001	30,394
144,0	0,015	-0,006	30,394
144,1	0,016	0,000	30,429
144,2	0,019	0,012	30,394
144,3	0,021	0,019	30,446
144,4	0,025	0,011	30,394
144,5	0,029	-0,010	30,429
144,6	0,033	-0,031	30,394
144,7	0,037	-0,033	30,429
144,8	0,041	-0,010	30,394
144,9	0,044	0,025	30,429
145,0	0,046	0,047	30,394
145,1	0,048	0,042	30,394
145,2	0,048	0,013	30,394
145,3	0,047	-0,020	30,429
145,4	0,044	-0,041	30,394
145,5	0,041	-0,040	30,429
145,6	0,037	-0,022	30,411
145,7	0,032	0,004	30,429
145,8	0,027	0,021	30,394
145,9	0,022	0,020	30,429
146,0	0,018	0,006	30,394
146,1	0,014	-0,007	30,411
146,2	0,010	-0,008	30,394
146,3	0,008	-0,004	30,394
146,4	0,006	-0,002	30,394
146,5	0,005	-0,005	30,411
146,6	0,005	-0,008	30,394
146,7	0,005	-0,008	30,429
146,8	0,006	-0,006	30,394
146,9	0,007	-0,005	30,446
147,0	0,008	-0,003	30,394
147,1	0,009	0,001	30,411
147,2	0,010	0,005	30,394
147,3	0,010	0,006	30,429
147,4	0,011	0,007	30,394
147,5	0,011	0,009	30,446
147,6	0,011	0,011	30,394
147,7	0,011	0,007	30,394
147,8	0,010	-0,003	30,394
147,9	0,010	-0,010	30,394
148,0	0,010	-0,010	30,394
148,1	0,009	-0,003	30,464
148,2	0,009	0,002	30,394
148,3	0,008	0,000	30,411
148,4	0,008	-0,003	30,394
148,5	0,008	0,000	30,411
148,6	0,007	0,008	30,394
148,7	0,007	0,014	30,394
148,8	0,007	0,011	30,394
148,9	0,007	0,001	30,411
149,0	0,007	-0,004	30,394
149,1	0,007	-0,002	30,411
149,2	0,007	0,003	30,394
149,3	0,008	0,004	30,394
149,4	0,008	-0,001	30,394
149,5	0,009	-0,003	30,429
149,6	0,010	0,003	30,394
149,7	0,011	0,011	30,429
149,8	0,011	0,010	30,394
149,9	0,012	-0,003	30,394
150,0	0,012	-0,016	30,411
150,1	0,012	-0,016	30,429
150,2	0,012	-0,004	30,394
150,3	0,011	0,005	30,394
150,4	0,010	0,004	30,394
150,5	0,009	-0,001	30,429
150,6	0,008	-0,003	30,411
150,7	0,008	-0,004	30,411
150,8	0,008	-0,008	30,394
150,9	0,008	-0,014	30,446
151,0	0,010	-0,011	30,394
151,1	0,011	0,000	30,411
151,2	0,014	0,012	30,394
151,3	0,017	0,013	30,411
151,4	0,021	0,002	30,394
151,5	0,024	-0,012	30,411
151,6	0,027	-0,020	30,411
151,7	0,030	-0,021	30,446
151,8	0,033	-0,011	30,394
151,9	0,034	0,009	30,394
152,0	0,034	0,033	30,394
152,1	0,033	0,043	30,411
152,2	0,031	0,030	30,394
152,3	0,028	0,003	30,411
152,4	0,024	-0,016	30,394
152,5	0,020	-0,015	30,429
152,6	0,016	-0,004	30,411
152,7	0,013	0,000	30,411
152,8	0,010	-0,005	30,411
152,9	0,008	-0,009	30,411
153,0	0,007	-0,005	30,411
153,1	0,007	0,004	30,394
153,2	0,008	0,009	30,394
153,3	0,010	0,007	30,429
153,4	0,013	0,005	30,394
153,5	0,015	0,008	30,411
153,6	0,018	0,015	30,394
153,7	0,020	0,022	30,464
153,8	0,022	0,022	30,394
153,9	0,023	0,014	30,429
154,0	0,023	0,001	30,411
154,1	0,022	-0,012	30,429
154,2	0,021	-0,019	30,394
154,3	0,019	-0,020	30,394
154,4	0,018	-0,017	30,411
154,5	0,016	-0,011	30,429
154,6	0,014	-0,004	30,394
154,7	0,013	0,000	30,394
154,8	0,012	-0,001	30,394
154,9	0,012	-0,005	30,411
155,0	0,012	-0,005	30,394
155,1	0,013	0,003	30,429
155,2	0,014	0,016	30,394
155,3	0,015	0,021	30,411
155,4	0,015	0,011	30,394
155,5	0,016	-0,006	30,394
155,6	0,016	-0,019	30,411
155,7	0,016	-0,019	30,411
155,8	0,016	-0,009	30,394
155,9	0,016	0,001	30,394
156,0	0,016	0,006	30,394
156,1	0,016	0,007	30,411
156,2	0,016	0,003	30,394
156,3	0,016	-0,005	30,411
156,4	0,017	-0,015	30,394
156,5	0,018	-0,020	30,394
156,6	0,019	-0,011	30,394
156,7	0,020	0,008	30,411
156,8	0,021	0,023	30,394
156,9	0,021	0,023	30,411
157,0	0,021	0,014	30,394
157,1	0,020	0,007	30,394
157,2	0,018	0,009	30,394
157,3	0,016	0,009	30,394
157,4	0,014	0,000	30,394
157,5	0,011	-0,011	30,429
157,6	0,009	-0,015	30,394
157,7	0,007	-0,009	30,394
157,8	0,006	-0,002	30,394
157,9	0,005	0,000	30,394
158,0	0,005	-0,001	30,394
158,1	0,006	0,002	30,394
158,2	0,008	0,005	30,394
158,3	0,011	0,002	30,394
158,4	0,013	-0,002	30,394
158,5	0,015	0,005	30,411
158,6	0,017	0,018	30,394
158,7	0,019	0,022	30,394
158,8	0,020	0,005	30,394
158,9	0,019	-0,019	30,429
159,0	0,018	-0,026	30,411
159,1	0,017	-0,012	30,394
159,2	0,015	0,006	30,394
159,3	0,013	0,009	30,411
159,4	0,012	0,001	30,394
159,5	0,011	-0,007	30,394
159,6	0,010	-0,007	30,394
159,7	0,011	-0,004	30,411
159,8	0,013	-0,003	30,394
159,9	0,016	-0,003	30,394
160,0	0,020	-0,006	30,394
160,1	0,024	-0,018	30,429
160,2	0,028	-0,033	30,394
160,3	0,031	-0,032	30,394
160,4	0,034	-0,008	30,411
160,5	0,037	0,027	30,394
160,6	0,038	0,046	30,394
160,7	0,039	0,038	30,394
160,8	0,038	0,014	30,394
160,9	0,038	-0,009	30,429
161,0	0,036	-0,022	30,394
161,1	0,035	-0,024	30,394
161,2	0,033	-0,011	30,394
161,3	0,031	0,011	30,394
161,4	0,030	0,023	30,394
161,5	0,029	0,010	30,394
161,6	0,028	-0,020	30,394
161,7	0,027	-0,038	30,429
161,8	0,026	-0,025	30,394
161,9	0,026	0,004	30,394
162,0	0,025	0,025	30,394
162,1	0,025	0,028	30,394
162,2	0,024	0,021	30,394
162,3	0,024	0,014	30,394
162,4	0,023	0,006	30,394
162,5	0,023	-0,002	30,411
162,6	0,023	-0,001	30,394
162,7	0,022	0,010	30,394
162,8	0,022	0,018	30,394
162,9	0,022	0,007	30,394
163,0	0,022	-0,018	30,394
163,1	0,021	-0,035	30,394
163,2	0,021	-0,030	30,394
163,3	0,020	-0,012	30,446
163,4	0,020	0,003	30,394
163,5	0,019	0,009	30,411
163,6	0,019	0,011	30,394
163,7	0,019	0,009	30,429
163,8	0,020	-0,002	30,394
163,9	0,021	-0,015	30,394
164,0	0,022	-0,017	30,411
164,1	0,024	0,000	30,394
164,2	0,025	0,021	30,394
164,3	0,027	0,026	30,394
164,4	0,028	0,011	30,394
164,5	0,028	-0,013	30,394
164,6	0,028	-0,029	30,394
164,7	0,028	-0,031	30,394
164,8	0,026	-0,021	30,394
164,9	0,025	-0,003	30,394
165,0	0,023	0,014	30,394
165,1	0,020	0,019	30,394
165,2	0,018	0,011	30,394
165,3	0,016	-0,002	30,394
165,4	0,014	-0,006	30,394
165,5	0,013	0,001	30,394
165,6	0,013	0,011	30,394
165,7	0,013	0,014	30,394
165,8	0,013	0,010	30,394
165,9	0,014	0,003	30,429
166,0	0,014	-0,005	30,394
166,1	0,015	-0,013	30,394
166,2	0,015	-0,016	30,394
166,3	0,015	-0,013	30,394
166,4	0,014	-0,003	30,394
166,5	0,013	0,008	30,394
166,6	0,012	0,013	30,394
166,7	0,010	0,012	30,411
166,8	0,009	0,007	30,394
166,9	0,008	0,002	30,411
167,0	0,008	0,002	30,394
167,1	0,008	0,006	30,394
167,2	0,009	0,010	30,394
167,3	0,011	0,007	30,394
167,4	0,013	0,000	30,394
167,5	0,015	-0,002	30,411
167,6	0,018	0,005	30,394
167,7	0,020	0,009	30,394
167,8	0,022	-0,003	30,394
167,9	0,023	-0,026	30,394
168,0	0,023	-0,037	30,411
168,1	0,022	-0,025	30,394
168,2	0,020	0,000	30,394
168,3	0,018	0,013	30,394
168,4	0,016	0,009	30,394
168,5	0,013	0,000	30,411
168,6	0,011	0,000	30,394
168,7	0,010	0,004	30,394
168,8	0,009	0,003	30,394
168,9	0,009	-0,002	30,394
169,0	0,009	0,001	30,394
169,1	0,011	0,012	30,394
169,2	0,013	0,018	30,411
169,3	0,015	0,010	30,394
169,4	0,017	-0,007	30,394
169,5	0,020	-0,020	30,411
169,6	0,022	-0,022	30,394
169,7	0,024	-0,020	30,394
169,8	0,025	-0,017	30,394
169,9	0,026	-0,013	30,411
170,0	0,027	-0,006	30,394
170,1	0,027	0,004	30,411
170,2	0,027	0,016	30,394
170,3	0,027	0,026	30,394
170,4	0,027	0,030	30,394
170,5	0,027	0,025	30,394
170,6	0,027	0,014	30,394
170,7	0,027	0,006	30,394
170,8	0,026	0,003	30,394
170,9	0,026	-0,001	30,411
171,0	0,026	-0,013	30,394
171,1	0,026	-0,029	30,394
171,2	0,025	-0,034	30,394
171,3	0,024	-0,021	30,394
171,4	0,023	-0,001	30,394
171,5	0,022	0,011	30,394
171,6	0,022	0,013	30,394
171,7	0,021	0,013	30,411
171,8	0,020	0,016	30,394
171,9	0,020	0,017	30,394
172,0	0,020	0,014	30,411
172,1	0,020	0,009	30,394
172,2	0,020	0,008	30,394
172,3	0,021	0,007	30,411
172,4	0,021	-0,002	30,394
172,5	0,021	-0,018	30,394
172,6	0,022	-0,028	30,394
172,7	0,022	-0,027	30,394
172,8	0,021	-0,017	30,394
172,9	0,021	-0,010	30,429
173,0	0,020	-0,006	30,394
173,1	0,019	-0,003	30,394
173,2	0,018	0,003	30,394
173,3	0,017	0,008	30,394
173,4	0,016	0,011	30,394
173,5	0,015	0,014	30,394
173,6	0,014	0,016	30,394
173,7	0,013	0,015	30,411
173,8	0,013	0,008	30,394
173,9	0,012	0,000	30,394
174,0	0,012	-0,003	30,394
174,1	0,012	-0,004	30,394
174,2	0,012	-0,008	30,394
174,3	0,012	-0,015	30,394
174,4	0,012	-0,015	30,394
174,5	0,012	-0,005	30,394
174,6	0,013	0,006	30,394
174,7	0,014	0,007	30,394
174,8	0,014	-0,003	30,394
174,9	0,015	-0,011	30,394
175,0	0,016	-0,007	30,394
175,1	0,017	0,007	30,394
175,2	0,018	0,018	30,394
175,3	0,018	0,020	30,411
175,4	0,019	0,017	30,394
175,5	0,019	0,012	30,394
175,6	0,019	0,006	30,394
175,7	0,019	-0,003	30,411
175,8	0,019	-0,014	30,394
175,9	0,019	-0,020	30,394
176,0	0,018	-0,016	30,394
176,1	0,019	-0,003	30,411
176,2	0,019	0,011	30,394
176,3	0,019	0,015	30,394
176,4	0,020	0,006	30,394
176,5	0,021	-0,012	30,394
176,6	0,021	-0,022	30,394
176,7	0,022	-0,016	30,394
176,8	0,022	0,004	30,394
176,9	0,023	0,021	30,394
177,0	0,022	0,021	30,394
177,1	0,022	0,004	30,394
177,2	0,021	-0,015	30,394
177,3	0,020	-0,021	30,394
177,4	0,018	-0,014	30,394
177,5	0,016	0,000	30,411
177,6	0,014	0,008	30,394
177,7	0,012	0,008	30,411
177,8	0,010	0,001	30,394
177,9	0,008	-0,007	30,394
178,0	0,007	-0,009	30,394
178,1	0,006	-0,005	30,411
178,2	0,005	0,000	30,394
178,3	0,004	0,001	30,411
178,4	0,004	-0,002	30,394
178,5	0,004	-0,005	30,411
178,6	0,005	-0,004	30,394
178,7	0,005	0,000	30,394
178,8	0,005	0,001	30,394
178,9	0,005	0,000	30,411
179,0	0,005	0,001	30,394
179,1	0,005	0,005	30,394
179,2	0,005	0,007	30,394
179,3	0,005	0,004	30,394
179,4	0,005	0,000	30,394
179,5	0,005	0,001	30,394
179,6	0,005	0,006	30,394
179,7	0,005	0,007	30,394
179,8	0,006	0,001	30,394
179,9	0,007	-0,004	30,394
180,0	0,008	-0,002	30,394
180,1	0,009	0,004	30,394
180,2	0,011	0,003	30,394
180,3	0,012	-0,007	30,411
180,4	0,013	-0,015	30,394
180,5	0,014	-0,010	30,394
180,6	0,015	0,005	30,394
180,7	0,015	0,018	30,394
180,8	0,015	0,019	30,394
180,9	0,015	0,009	30,411
181,0	0,015	-0,002	30,394
181,1	0,015	-0,008	30,394
181,2	0,015	-0,005	30,394
181,3	0,014	0,002	30,394
181,4	0,015	0,002	30,394
181,5	0,015	-0,008	30,394
181,6	0,015	-0,023	30,394
181,7	0,016	-0,024	30,411
181,8	0,017	-0,009	30,394
181,9	0,017	0,007	30,394
182,0	0,018	0,005	30,394
182,1	0,018	-0,010	30,394
182,2	0,019	-0,016	30,394
182,3	0,019	-0,003	30,394
182,4	0,018	0,014	30,394
182,5	0,018	0,019	30,394
182,6	0,018	0,013	30,394
182,7	0,017	0,013	30,394
182,8	0,018	0,020	30,394
182,9	0,018	0,019	30,394
183,0	0,020	-0,001	30,394
183,1	0,021	-0,021	30,394
183,2	0,024	-0,021	30,394
183,3	0,027	-0,006	30,394
183,4	0,031	-0,001	30,394
183,5	0,034	-0,018	30,394
183,6	0,038	-0,037	30,411
183,7	0,041	-0,033	30,394
183,8	0,043	-0,003	30,411
183,9	0,044	0,029	30,394
184,0	0,044	0,048	30,394
184,1	0,043	0,049	30,394
184,2	0,041	0,035	30,394
184,3	0,038	0,010	30,394
184,4	0,035	-0,016	30,394
184,5	0,031	-0,026	30,394
184,6	0,028	-0,013	30,394
184,7	0,025	0,005	30,394
184,8	0,022	0,006	30,394
184,9	0,021	-0,011	30,394
185,0	0,021	-0,025	30,394
185,1	0,021	-0,023	30,394
185,2	0,022	-0,012	30,394
185,3	0,024	-0,005	30,394
185,4	0,026	0,004	30,394
185,5	0,028	0,022	30,394
185,6	0,031	0,039	30,394
185,7	0,032	0,033	30,394
185,8	0,034	0,000	30,394
185,9	0,034	-0,029	30,394
186,0	0,034	-0,025	30,394
186,1	0,034	0,005	30,411
186,2	0,033	0,022	30,394
186,3	0,032	0,009	30,394
186,4	0,030	-0,017	30,394
186,5	0,028	-0,030	30,411
186,6	0,027	-0,024	30,394
186,7	0,025	-0,013	30,394
186,8	0,023	-0,005	30,394
186,9	0,021	0,005	30,394
187,0	0,020	0,021	30,394
187,1	0,018	0,027	30,394
187,2	0,018	0,015	30,394
187,3	0,017	-0,006	30,394
187,4	0,017	-0,015	30,394
187,5	0,018	-0,004	30,411
187,6	0,020	0,010	30,394
187,7	0,022	0,014	30,394
187,8	0,024	0,007	30,394
187,9	0,026	-0,001	30,394
188,0	0,029	-0,011	30,394
188,1	0,031	-0,025	30,394
188,2	0,032	-0,038	30,411
188,3	0,033	-0,035	30,394
188,4	0,033	-0,010	30,411
188,5	0,033	0,021	30,394
188,6	0,031	0,035	30,394
188,7	0,029	0,028	30,394
188,8	0,027	0,014	30,394
188,9	0,024	0,007	30,411
189,0	0,021	0,006	30,394
189,1	0,018	0,004	30,394
189,2	0,016	-0,001	30,394
189,3	0,014	-0,006	30,394
189,4	0,013	-0,009	30,394
189,5	0,012	-0,013	30,394
189,6	0,012	-0,018	30,394
189,7	0,012	-0,017	30,394
189,8	0,012	-0,009	30,394
189,9	0,013	0,001	30,411
190,0	0,014	0,007	30,394
190,1	0,015	0,007	30,394
190,2	0,016	0,009	30,394
190,3	0,016	0,013	30,394
190,4	0,017	0,015	30,394
190,5	0,017	0,011	30,411
190,6	0,017	0,002	30,394
190,7	0,017	-0,006	30,394
190,8	0,017	-0,013	30,394
190,9	0,017	-0,018	30,394
191,0	0,016	-0,017	30,394
191,1	0,015	-0,010	30,394
191,2	0,014	0,000	30,394
191,3	0,013	0,004	30,394
191,4	0,012	0,001	30,394
191,5	0,011	0,000	30,394
191,6	0,010	0,006	30,394
191,7	0,010	0,016	30,394
191,8	0,010	0,017	30,394
191,9	0,011	0,008	30,394
192,0	0,013	-0,003	30,394
192,1	0,014	-0,007	30,394
192,2	0,017	-0,004	30,394
192,3	0,019	-0,001	30,394
192,4	0,022	0,005	30,394
192,5	0,025	0,017	30,394
192,6	0,027	0,032	30,394
192,7	0,029	0,035	30,394
192,8	0,030	0,017	30,394
192,9	0,031	-0,012	30,394
193,0	0,031	-0,031	30,394
193,1	0,030	-0,025	30,394
193,2	0,029	-0,002	30,394
193,3	0,028	0,017	30,394
193,4	0,026	0,017	30,394
193,5	0,024	0,000	30,394
193,6	0,023	-0,017	30,394
193,7	0,021	-0,022	30,394
193,8	0,020	-0,011	30,394
193,9	0,019	0,005	30,394
194,0	0,018	0,017	30,394
194,1	0,018	0,019	30,394
194,2	0,018	0,015	30,394
194,3	0,018	0,009	30,394
194,4	0,018	0,002	30,394
194,5	0,018	-0,004	30,411
194,6	0,017	-0,009	30,394
194,7	0,017	-0,012	30,394
194,8	0,017	-0,016	30,394
194,9	0,017	-0,020	30,411
195,0	0,017	-0,018	30,394
195,1	0,017	-0,006	30,394
195,2	0,016	0,005	30,394
195,3	0,016	0,002	30,394
195,4	0,016	-0,011	30,394
195,5	0,016	-0,017	30,411
195,6	0,016	-0,005	30,394
195,7	0,016	0,015	30,394
195,8	0,016	0,021	30,394
195,9	0,016	0,011	30,394
196,0	0,016	0,003	30,394
196,1	0,016	0,010	30,394
196,2	0,016	0,018	30,394
196,3	0,016	0,011	30,394
196,4	0,016	-0,007	30,376
196,5	0,016	-0,015	30,394
196,6	0,017	-0,007	30,394
196,7	0,017	-0,001	30,394
196,8	0,018	-0,011	30,394
196,9	0,019	-0,025	30,394
197,0	0,020	-0,022	30,394
197,1	0,021	-0,001	30,394
197,2	0,022	0,015	30,394
197,3	0,023	0,013	30,394
197,4	0,023	0,008	30,394
197,5	0,024	0,016	30,394
197,6	0,024	0,028	30,394
197,7	0,024	0,024	30,411
197,8	0,023	0,003	30,394
197,9	0,022	-0,013	30,394
198,0	0,021	-0,011	30,394
198,1	0,019	-0,005	30,394
198,2	0,017	-0,010	30,394
198,3	0,014	-0,020	30,394
198,4	0,012	-0,018	30,394
198,5	0,010	-0,005	30,394
198,6	0,009	0,003	30,394
198,7	0,008	0,000	30,394
198,8	0,008	-0,002	30,394
198,9	0,009	0,007	30,394
199,0	0,011	0,013	30,394
199,1	0,014	0,006	30,394
199,2	0,017	-0,002	30,394
199,3	0,020	0,005	30,394
199,4	0,023	0,023	30,394
199,5	0,027	0,026	30,394
199,6	0,029	0,005	30,411
199,7	0,032	-0,021	30,394
199,8	0,033	-0,033	30,394
199,9	0,033	-0,030	30,394
