scansci Spectrometer Data File
--- Measurement Setting ---
Type: Sample Spectrum
Date: Tue Nov 11 11:48:24 2025
User: (Reserved by scansci)
Serial: (Reserved by scansci)
Channel: No. 11
Integration Time: 9
Average: 12
Boxcar: 0
Electrical Dark: No-corrected
Time Normalize: (Reserved by scansci)
Dual-beam: (Reserved by scansci)
Reference Ch: (Reserved by scansci)
--- Measurement Data ---
Pixel   Wavelength   Intensity
    0        344.4      687.583
    1      344.867          686
    2      345.334      684.917
    3      345.801      684.583
    4      346.268      685.083
    5      346.735      685.917
    6      347.202      687.833
    7      347.669        687.5
    8      348.135      685.583
    9      348.602      684.583
   10      349.068          685
   11      349.535      685.417
   12      350.001      686.083
   13      350.467      686.917
   14      350.933      686.083
   15      351.399      688.667
   16      351.866      691.083
   17      352.331       688.75
   18      352.797      687.333
   19      353.263      686.333
   20      353.729      684.083
   21      354.194        681.5
   22       354.66      680.333
   23      355.126       680.25
   24      355.591      681.583
   25      356.056       682.75
   26      356.522       683.25
   27      356.987      683.167
   28      357.452      682.917
   29      357.917      683.917
   30      358.382          685
   31      358.847      687.417
   32      359.312       687.75
   33      359.776      686.833
   34      360.241      687.583
   35      360.706       688.25
   36       361.17      688.417
   37      361.634      688.417
   38      362.099      689.083
   39      362.563       687.75
   40      363.027      687.083
   41      363.491          688
   42      363.955          688
   43      364.419      687.833
   44      364.883       685.75
   45      365.347      685.167
   46      365.811      686.083
   47      366.274       685.25
   48      366.738      686.167
   49      367.201          687
   50      367.665       687.75
   51      368.128      687.917
   52      368.592      687.083
   53      369.055      686.417
   54      369.518      684.583
   55      369.981      683.333
   56      370.444      684.333
   57      370.907        684.5
   58       371.37          685
   59      371.832      686.667
   60      372.295      687.083
   61      372.757        686.5
   62       373.22      686.083
   63      373.682      685.333
   64      374.145      683.667
   65      374.607       683.75
   66      375.069      683.833
   67      375.531        684.5
   68      375.993      685.917
   69      376.455       685.75
   70      376.917      684.333
   71      377.379       683.75
   72      377.841      686.083
   73      378.302      686.917
   74      378.764      687.833
   75      379.225      688.917
   76      379.687      689.417
   77      380.148      689.083
   78      380.609      688.083
   79      381.071       685.75
   80      381.532       685.75
   81      381.993       687.25
   82      382.454      686.917
   83      382.915        687.5
   84      383.375      687.833
   85      383.836      687.083
   86      384.297      687.583
   87      384.757      688.167
   88      385.218      685.917
   89      385.678      683.917
   90      386.138       684.25
   91      386.599          683
   92      387.059       683.75
   93      387.519      686.417
   94      387.979      685.667
   95      388.439      684.917
   96      388.899      686.667
   97      389.358      686.583
   98      389.818      685.167
   99      390.278      683.583
  100      390.737      683.583
  101      391.197       685.25
  102      391.656      686.417
  103      392.115      685.917
  104      392.575       685.25
  105      393.034      685.917
  106      393.493          688
  107      393.952          689
  108      394.411      687.667
  109       394.87      687.083
  110      395.328      685.917
  111      395.787      684.667
  112      396.246      685.667
  113      396.704      685.333
  114      397.163      683.667
  115      397.621      685.083
  116      398.079      687.583
  117      398.537      687.417
  118      398.995      688.333
  119      399.454      689.167
  120      399.911      688.667
  121      400.369      687.583
  122      400.827      686.833
  123      401.285      684.083
  124      401.743        683.5
  125        402.2      684.833
  126      402.658      684.583
  127      403.115      684.917
  128      403.572        684.5
  129       404.03      685.417
  130      404.487      685.417
  131      404.944      684.667
  132      405.401      684.417
  133      405.858      685.583
  134      406.315          685
  135      406.771      685.917
  136      407.228          688
  137      407.685        688.5
  138      408.141      687.667
  139      408.598      686.917
  140      409.054      685.417
  141       409.51      683.583
  142      409.967       683.75
  143      410.423      685.417
  144      410.879      687.833
  145      411.335      688.833
  146      411.791      686.833
  147      412.246      685.667
  148      412.702      685.917
  149      413.158      686.333
  150      413.613      686.833
  151      414.069      686.083
  152      414.524      685.833
  153       414.98      685.833
  154      415.435        686.5
  155       415.89      686.583
  156      416.345       685.25
  157        416.8      685.417
  158      417.255      685.083
  159       417.71      683.833
  160      418.165          686
  161      418.619       687.75
  162      419.074          688
  163      419.529       688.75
  164      419.983       689.25
  165      420.437      688.833
  166      420.892        687.5
  167      421.346      686.917
  168        421.8      688.333
  169      422.254       687.25
  170      422.708      687.417
  171      423.162      688.083
  172      423.616       688.25
  173       424.07       688.75
  174      424.523        687.5
  175      424.977       688.25
  176       425.43      689.167
  177      425.884      688.667
  178      426.337      689.583
  179       426.79          691
  180      427.243      691.083
  181      427.697      688.083
  182       428.15      689.667
  183      428.602      690.083
  184      429.055      689.583
  185      429.508      691.667
  186      429.961      692.167
  187      430.413      691.917
  188      430.866        690.5
  189      431.318      689.083
  190      431.771      690.583
  191      432.223      692.667
  192      432.675          694
  193      433.127       691.75
  194      433.579      690.083
  195      434.031          691
  196      434.483      691.417
  197      434.935      690.333
  198      435.387          688
  199      435.838      686.333
  200       436.29       686.25
  201      436.741      685.917
  202      437.193      685.917
  203      437.644      686.833
  204      438.095       688.75
  205      438.546      687.667
  206      438.997      686.333
  207      439.448      686.667
  208      439.899       686.25
  209       440.35          687
  210      440.801       687.75
  211      441.251      688.167
  212      441.702       688.75
  213      442.152       689.75
  214      442.603      688.833
  215      443.053      688.667
  216      443.503          689
  217      443.954      688.667
  218      444.404      689.083
  219      444.854      690.667
  220      445.304      691.917
  221      445.753      692.833
  222      446.203      691.083
  223      446.653      689.083
  224      447.102      689.083
  225      447.552      689.667
  226      448.001      688.167
  227      448.451      687.167
  228        448.9      687.833
  229      449.349      687.917
  230      449.798      688.333
  231      450.247        689.5
  232      450.696      689.083
  233      451.145       688.75
  234      451.594        688.5
  235      452.042      689.917
  236      452.491          690
  237      452.939      690.583
  238      453.388      690.333
  239      453.836      689.417
  240      454.285      690.583
  241      454.733       690.75
  242      455.181      690.333
  243      455.629      690.417
  244      456.077      690.083
  245      456.525      687.333
  246      456.972      685.417
  247       457.42      686.583
  248      457.868      687.167
  249      458.315      686.583
  250      458.763      688.167
  251       459.21       689.75
  252      459.657        689.5
  253      460.104      689.667
  254      460.552      691.083
  255      460.999       690.25
  256      461.446      689.667
  257      461.892      687.833
  258      462.339      688.167
  259      462.786      690.167
  260      463.233       689.75
  261      463.679      689.083
  262      464.125      689.583
  263      464.572      688.167
  264      465.018      688.667
  265      465.464      689.417
  266       465.91      689.917
  267      466.356      691.417
  268      466.802       691.75
  269      467.248      691.333
  270      467.694      691.417
  271       468.14      689.667
  272      468.585          689
  273      469.031       689.75
  274      469.476      691.333
  275      469.922      691.083
  276      470.367          690
  277      470.812      689.917
  278      471.257       690.25
  279      471.702      690.583
  280      472.147          691
  281      472.592      690.333
  282      473.037       689.75
  283      473.482          688
  284      473.926      686.917
  285      474.371          688
  286      474.815      688.333
  287      475.259      688.667
  288      475.704      689.167
  289      476.148       687.75
  290      476.592      684.583
  291      477.036      684.583
  292       477.48        687.5
  293      477.924      689.167
  294      478.368        688.5
  295      478.811      688.667
  296      479.255        689.5
  297      479.698      689.333
  298      480.142      689.167
  299      480.585      690.333
  300      481.028       691.25
  301      481.472      692.583
  302      481.915       693.75
  303      482.358      693.583
  304      482.801      693.083
  305      483.244      691.917
  306      483.686        690.5
  307      484.129      691.333
  308      484.572      690.583
  309      485.014        688.5
  310      485.456        689.5
  311      485.899      690.417
  312      486.341      690.417
  313      486.783       692.25
  314      487.225       693.25
  315      487.667      690.917
  316      488.109      688.917
  317      488.551       688.25
  318      488.993      689.167
  319      489.434       690.75
  320      489.876      691.833
  321      490.318        693.5
  322      490.759      693.167
  323        491.2      692.333
  324      491.641      693.167
  325      492.083          694
  326      492.524       693.75
  327      492.965      692.167
  328      493.406      690.583
  329      493.846       692.75
  330      494.287      695.333
  331      494.728      694.583
  332      495.168        694.5
  333      495.609      696.667
  334      496.049      698.167
  335      496.489      699.833
  336       496.93        700.5
  337       497.37       702.25
  338       497.81      702.667
  339       498.25      703.333
  340       498.69      707.417
  341      499.129      711.333
  342      499.569      713.083
  343      500.009      714.917
  344      500.448      714.417
  345      500.888       713.25
  346      501.327          715
  347      501.766      716.833
  348      502.206      716.417
  349      502.645          716
  350      503.084      718.667
  351      503.523      721.583
  352      503.961       721.75
  353        504.4      722.417
  354      504.839          725
  355      505.277      727.333
  356      505.716          728
  357      506.154      728.083
  358      506.593      729.417
  359      507.031      733.083
  360      507.469      734.667
  361      507.907        734.5
  362      508.345      737.583
  363      508.783      740.167
  364      509.221      740.917
  365      509.659      741.667
  366      510.096      742.667
  367      510.534      745.417
  368      510.971      750.417
  369      511.409       752.25
  370      511.846          753
  371      512.283       753.25
  372       512.72          753
  373      513.157      755.833
  374      513.594      760.417
  375      514.031      764.583
  376      514.468      766.583
  377      514.905       768.75
  378      515.341       769.75
  379      515.778      772.917
  380      516.214        775.5
  381       516.65      775.833
  382      517.087      778.417
  383      517.523      780.167
  384      517.959      782.167
  385      518.395       786.25
  386      518.831      790.583
  387      519.267      792.667
  388      519.702       796.25
  389      520.138          800
  390      520.574       801.25
  391      521.009      800.333
  392      521.444       802.75
  393       521.88       807.75
  394      522.315      812.583
  395       522.75          815
  396      523.185      817.083
  397       523.62      820.417
  398      524.055        823.5
  399       524.49      823.417
  400      524.924      825.667
  401      525.359      829.333
  402      525.794      832.333
  403      526.228        836.5
  404      526.662       840.25
  405      527.097      843.917
  406      527.531      849.333
  407      527.965          852
  408      528.399          853
  409      528.833      855.833
  410      529.267      857.917
  411        529.7      860.667
  412      530.134        866.5
  413      530.568        871.5
  414      531.001      875.917
  415      531.434       879.25
  416      531.868      881.833
  417      532.301       886.75
  418      532.734      892.083
  419      533.167          897
  420        533.6      899.417
  421      534.033      903.417
  422      534.466      908.167
  423      534.898          914
  424      535.331       919.75
  425      535.763      924.583
  426      536.196      930.917
  427      536.628      934.083
  428       537.06      938.833
  429      537.493        944.5
  430      537.925      946.167
  431      538.357      948.333
  432      538.788      954.167
  433       539.22      959.083
  434      539.652      961.917
  435      540.084          966
  436      540.515      970.417
  437      540.947      974.083
  438      541.378      978.833
  439      541.809      984.083
  440       542.24          989
  441      542.672      993.917
  442      543.103      997.917
  443      543.533      998.833
  444      543.964      1001.25
  445      544.395      1007.08
  446      544.826       1010.5
  447      545.256      1013.67
  448      545.687      1022.17
  449      546.117      1030.25
  450      546.547      1035.08
  451      546.978      1040.25
  452      547.408      1043.75
  453      547.838      1044.33
  454      548.268      1045.92
  455      548.698      1050.08
  456      549.127      1054.25
  457      549.557      1061.58
  458      549.987      1071.75
  459      550.416      1074.67
  460      550.846       1077.5
  461      551.275      1085.58
  462      551.704      1089.33
  463      552.133      1093.08
  464      552.562      1098.75
  465      552.991      1103.33
  466       553.42      1110.58
  467      553.849       1116.5
  468      554.278      1122.17
  469      554.706      1128.33
  470      555.135      1132.67
  471      555.563       1136.5
  472      555.991         1139
  473       556.42      1143.25
  474      556.848      1149.67
  475      557.276         1157
  476      557.704      1163.25
  477      558.132         1170
  478       558.56      1178.75
  479      558.987      1185.83
  480      559.415      1192.92
  481      559.843      1200.58
  482       560.27      1206.83
  483      560.697      1214.25
  484      561.125      1220.92
  485      561.552      1226.17
  486      561.979      1231.92
  487      562.406      1238.42
  488      562.833      1248.17
  489       563.26      1254.83
  490      563.686      1259.58
  491      564.113      1266.08
  492       564.54      1276.33
  493      564.966      1283.58
  494      565.392      1289.42
  495      565.819         1299
  496      566.245      1308.17
  497      566.671      1320.92
  498      567.097      1331.42
  499      567.523      1336.92
  500      567.949      1341.17
  501      568.374      1350.58
  502        568.8      1363.08
  503      569.226      1369.25
  504      569.651      1371.75
  505      570.077      1381.08
  506      570.502      1392.83
  507      570.927      1398.33
  508      571.352      1405.33
  509      571.777      1418.08
  510      572.202         1426
  511      572.627      1431.17
  512      573.052      1439.08
  513      573.476      1450.67
  514      573.901      1460.67
  515      574.325      1468.92
  516       574.75      1480.67
  517      575.174       1489.5
  518      575.598      1500.58
  519      576.022      1512.42
  520      576.446      1518.25
  521       576.87      1527.75
  522      577.294      1540.83
  523      577.718      1551.08
  524      578.142      1557.83
  525      578.565      1567.58
  526      578.989      1579.42
  527      579.412      1594.67
  528      579.835      1602.42
  529      580.259      1606.83
  530      580.682      1617.58
  531      581.105      1631.42
  532      581.528      1644.92
  533      581.951         1657
  534      582.373      1671.92
  535      582.796      1685.25
  536      583.219      1696.75
  537      583.641      1706.58
  538      584.063      1718.92
  539      584.486      1732.25
  540      584.908         1746
  541       585.33      1754.33
  542      585.752      1762.92
  543      586.174      1778.67
  544      586.596      1791.42
  545      587.018      1807.58
  546      587.439      1822.75
  547      587.861      1831.75
  548      588.282         1842
  549      588.704      1854.75
  550      589.125      1868.83
  551      589.546      1878.33
  552      589.967         1893
  553      590.388       1912.5
  554      590.809      1928.67
  555       591.23      1947.92
  556      591.651      1971.83
  557      592.071      1994.67
  558      592.492      2009.17
  559      592.912      2025.08
  560      593.333      2044.08
  561      593.753      2058.83
  562      594.173      2066.42
  563      594.593      2072.92
  564      595.013       2087.5
  565      595.433      2097.42
  566      595.853         2107
  567      596.273      2119.83
  568      596.693      2127.08
  569      597.112         2137
  570      597.532      2144.08
  571      597.951      2155.67
  572       598.37      2172.58
  573      598.789      2181.42
  574      599.208      2185.08
  575      599.627      2193.08
  576      600.046      2203.08
  577      600.465      2216.58
  578      600.884      2231.58
  579      601.303      2235.42
  580      601.721      2236.33
  581      602.139      2249.17
  582      602.558      2260.08
  583      602.976         2268
  584      603.394      2275.33
  585      603.812       2267.5
  586       604.23      2258.08
  587      604.648      2267.25
  588      605.066         2286
  589      605.484      2302.33
  590      605.901      2316.58
  591      606.319       2329.5
  592      606.736       2340.5
  593      607.154         2353
  594      607.571      2366.75
  595      607.988      2375.25
  596      608.405      2378.67
  597      608.822      2383.75
  598      609.239      2397.83
  599      609.656      2410.25
  600      610.072         2427
  601      610.489      2443.75
  602      610.905      2446.17
  603      611.322      2452.92
  604      611.738      2461.33
  605      612.154      2471.75
  606       612.57      2488.42
  607      612.986      2496.25
  608      613.402       2508.5
  609      613.818      2523.92
  610      614.234      2540.25
  611       614.65      2554.08
  612      615.065      2560.92
  613      615.481      2568.83
  614      615.896      2578.33
  615      616.311      2582.08
  616      616.727      2595.08
  617      617.142      2612.17
  618      617.557         2619
  619      617.972      2630.25
  620      618.386      2646.08
  621      618.801       2657.5
  622      619.216      2665.33
  623       619.63      2676.33
  624      620.045         2689
  625      620.459       2699.5
  626      620.873      2710.92
  627      621.287         2725
  628      621.702      2736.75
  629      622.116      2737.83
  630      622.529      2740.25
  631      622.943      2750.75
  632      623.357      2764.17
  633      623.771      2779.75
  634      624.184      2788.33
  635      624.597      2800.67
  636      625.011      2815.42
  637      625.424      2824.92
  638      625.837      2840.08
  639       626.25      2852.08
  640      626.663      2864.92
  641      627.076         2887
  642      627.489      2901.17
  643      627.901      2910.67
  644      628.314         2916
  645      628.726      2928.33
  646      629.139      2940.25
  647      629.551       2948.5
  648      629.963      2972.75
  649      630.375      2986.42
  650      630.787      3000.42
  651      631.199      3015.75
  652      631.611      3025.08
  653      632.023      3036.67
  654      632.434      3048.83
  655      632.846      3065.83
  656      633.257      3086.92
  657      633.669      3107.75
  658       634.08      3122.08
  659      634.491         3130
  660      634.902      3143.92
  661      635.313      3152.25
  662      635.724      3150.67
  663      636.135      3165.83
  664      636.545      3184.67
  665      636.956      3191.67
  666      637.366      3197.67
  667      637.777      3208.67
  668      638.187         3211
  669      638.597         3216
  670      639.007      3232.67
  671      639.417       3243.5
  672      639.827       3253.5
  673      640.237      3270.17
  674      640.647      3279.75
  675      641.056      3282.75
  676      641.466      3292.58
  677      641.875      3304.42
  678      642.285      3313.92
  679      642.694      3330.33
  680      643.103      3349.42
  681      643.512       3363.5
  682      643.921      3376.08
  683       644.33      3394.92
  684      644.739      3398.83
  685      645.148      3393.42
  686      645.556       3398.5
  687      645.965      3410.33
  688      646.373      3427.33
  689      646.781      3445.58
  690      647.189      3462.83
  691      647.598      3489.17
  692      648.006      3515.67
  693      648.414      3519.75
  694      648.821      3513.08
  695      649.229      3516.08
  696      649.637      3512.42
  697      650.044      3505.25
  698      650.452      3512.58
  699      650.859      3524.92
  700      651.266      3522.83
  701      651.673      3522.83
  702       652.08      3541.33
  703      652.487      3564.42
  704      652.894      3593.83
  705      653.301      3626.08
  706      653.708      3639.25
  707      654.114      3643.17
  708      654.521      3658.08
  709      654.927      3666.83
  710      655.333      3678.33
  711       655.74      3691.08
  712      656.146      3690.67
  713      656.552      3684.58
  714      656.958      3698.08
  715      657.363      3717.33
  716      657.769      3715.92
  717      658.175      3725.83
  718       658.58      3752.08
  719      658.986         3770
  720      659.391      3779.08
  721      659.796      3778.67
  722      660.201      3787.17
  723      660.606      3807.33
  724      661.011         3822
  725      661.416      3836.75
  726      661.821         3846
  727      662.225      3856.58
  728       662.63      3878.58
  729      663.034      3887.33
  730      663.439      3889.83
  731      663.843      3893.08
  732      664.247      3889.08
  733      664.651      3895.42
  734      665.055      3909.08
  735      665.459      3920.58
  736      665.863      3937.42
  737      666.267      3952.58
  738       666.67      3966.17
  739      667.074      3977.67
  740      667.477      3985.83
  741       667.88      3986.58
  742      668.283         3989
  743      668.687      4008.08
  744       669.09      4013.67
  745      669.492       4020.5
  746      669.895      4031.75
  747      670.298         4039
  748      670.701       4055.5
  749      671.103      4068.42
  750      671.505      4088.75
  751      671.908      4099.25
  752       672.31      4103.75
  753      672.712      4129.42
  754      673.114         4150
  755      673.516      4162.33
  756      673.918      4169.58
  757       674.32      4182.17
  758      674.721         4201
  759      675.123       4210.5
  760      675.524      4216.33
  761      675.926      4215.67
  762      676.327      4215.33
  763      676.728      4233.08
  764      677.129      4244.17
  765       677.53      4262.58
  766      677.931      4283.25
  767      678.332         4296
  768      678.732      4311.42
  769      679.133      4319.25
  770      679.533      4329.67
  771      679.934      4329.92
  772      680.334      4328.58
  773      680.734       4347.5
  774      681.134         4361
  775      681.534         4373
  776      681.934      4395.83
  777      682.334         4409
  778      682.733      4423.67
  779      683.133      4446.75
  780      683.532       4464.5
  781      683.932      4465.83
  782      684.331      4445.75
  783       684.73      4426.83
  784      685.129      4423.83
  785      685.528      4434.75
  786      685.927      4437.67
  787      686.326      4429.33
  788      686.725      4429.83
  789      687.123       4440.5
  790      687.522      4459.08
  791       687.92      4488.83
  792      688.319      4518.67
  793      688.717      4545.25
  794      689.115      4568.33
  795      689.513      4575.33
  796      689.911      4565.67
  797      690.309      4573.75
  798      690.706      4603.33
  799      691.104      4622.25
  800      691.501      4640.67
  801      691.899      4648.92
  802      692.296      4650.17
  803      692.693      4660.25
  804       693.09      4667.83
  805      693.488      4688.08
  806      693.884      4713.83
  807      694.281      4709.17
  808      694.678      4702.92
  809      695.075      4719.83
  810      695.471         4742
  811      695.868      4761.08
  812      696.264      4767.75
  813       696.66      4772.25
  814      697.056      4788.67
  815      697.452       4793.5
  816      697.848      4803.25
  817      698.244      4819.67
  818       698.64      4826.42
  819      699.035      4822.75
  820      699.431      4817.42
  821      699.826      4823.08
  822      700.222      4835.83
  823      700.617      4857.33
  824      701.012      4861.92
  825      701.407      4865.83
  826      701.802      4885.08
  827      702.197      4912.08
  828      702.592      4922.75
  829      702.986       4915.5
  830      703.381      4920.42
  831      703.775      4922.08
  832       704.17         4916
  833      704.564      4907.67
  834      704.958      4903.25
  835      705.352       4917.5
  836      705.746      4927.75
  837       706.14      4933.58
  838      706.533      4939.25
  839      706.927       4928.5
  840      707.321      4922.17
  841      707.714       4933.5
  842      708.107      4938.58
  843      708.501      4941.25
  844      708.894       4945.5
  845      709.287       4949.5
  846       709.68      4953.75
  847      710.073      4958.33
  848      710.465         4949
  849      710.858      4939.58
  850      711.251       4950.5
  851      711.643      4959.92
  852      712.035      4965.92
  853      712.428      4959.92
  854       712.82      4949.33
  855      713.212      4947.25
  856      713.604      4954.42
  857      713.995      4968.25
  858      714.387      4973.58
  859      714.779      4969.83
  860       715.17      4967.83
  861      715.562      4974.58
  862      715.953      4985.92
  863      716.344      4975.75
  864      716.735      4948.42
  865      717.127      4937.67
  866      717.517      4938.25
  867      717.908      4929.08
  868      718.299      4913.92
  869       718.69      4906.83
  870       719.08         4895
  871      719.471       4867.5
  872      719.861      4855.58
  873      720.251      4850.08
  874      720.641      4843.67
  875      721.031      4855.08
  876      721.421      4877.67
  877      721.811       4876.5
  878      722.201      4881.42
  879       722.59      4903.42
  880       722.98      4908.33
  881      723.369      4910.42
  882      723.759         4910
  883      724.148      4899.08
  884      724.537      4886.42
  885      724.926         4876
  886      725.315      4870.17
  887      725.704      4868.33
  888      726.092      4857.25
  889      726.481      4843.67
  890       726.87       4834.5
  891      727.258      4828.92
  892      727.646      4829.42
  893      728.034      4826.83
  894      728.423      4832.75
  895      728.811      4857.92
  896      729.198      4876.75
  897      729.586      4868.08
  898      729.974      4855.92
  899      730.362      4861.58
  900      730.749       4870.5
  901      731.136      4883.67
  902      731.524      4880.58
  903      731.911      4880.42
  904      732.298      4886.92
  905      732.685      4876.92
  906      733.072      4856.08
  907      733.459      4847.58
  908      733.845      4847.75
  909      734.232      4842.08
  910      734.618      4839.17
  911      735.005      4828.25
  912      735.391      4822.75
  913      735.777      4819.17
  914      736.163      4826.17
  915      736.549         4834
  916      736.935      4833.17
  917      737.321      4847.08
  918      737.706      4855.83
  919      738.092      4860.33
  920      738.477      4871.42
  921      738.863       4885.5
  922      739.248      4886.58
  923      739.633      4876.75
  924      740.018      4875.42
  925      740.403         4880
  926      740.788         4884
  927      741.173      4875.25
  928      741.557      4868.33
  929      741.942      4873.17
  930      742.326      4868.83
  931      742.711      4867.17
  932      743.095      4881.42
  933      743.479      4888.33
  934      743.863      4890.25
  935      744.247      4898.17
  936      744.631      4901.25
  937      745.015      4896.75
  938      745.398      4890.25
  939      745.782      4906.42
  940      746.165      4936.58
  941      746.548         4953
  942      746.932      4948.08
  943      747.315      4934.17
  944      747.698      4918.75
  945      748.081      4904.58
  946      748.463      4905.25
  947      748.846      4909.25
  948      749.229      4920.83
  949      749.611      4933.92
  950      749.993      4939.83
  951      750.376         4953
  952      750.758       4970.5
  953       751.14      4967.17
  954      751.522      4954.75
  955      751.904      4966.42
  956      752.285         4974
  957      752.667      4982.75
  958      753.049      4990.83
  959       753.43       4993.5
  960      753.811      4998.75
  961      754.193      4980.25
  962      754.574      4961.08
  963      754.955      4963.75
  964      755.336       4969.5
  965      755.717      4978.83
  966      756.097      4975.83
  967      756.478      4969.83
  968      756.858      4959.17
  969      757.239      4943.25
  970      757.619      4949.33
  971      757.999      4949.25
  972      758.379      4937.25
  973      758.759      4932.08
  974      759.139      4926.17
  975      759.519      4918.75
  976      759.899      4903.92
  977      760.278      4900.92
  978      760.658       4906.5
  979      761.037      4910.42
  980      761.417      4920.08
  981      761.796      4934.42
  982      762.175      4953.33
  983      762.554      4965.83
  984      762.933      4961.67
  985      763.311      4950.67
  986       763.69      4953.75
  987      764.068      4961.75
  988      764.447      4956.75
  989      764.825      4955.17
  990      765.203      4972.17
  991      765.582      4986.92
  992       765.96      4988.08
  993      766.338      4989.92
  994      766.715      4993.17
  995      767.093       5005.5
  996      767.471      4994.42
  997      767.848      4995.83
  998      768.226      5020.92
  999      768.603      5030.83
 1000       768.98      5043.33
 1001      769.357      5057.08
 1002      769.734      5066.58
 1003      770.111      5060.83
 1004      770.488      5049.17
 1005      770.864      5047.25
 1006      771.241       5040.5
 1007      771.617      5011.08
 1008      771.994      4981.08
 1009       772.37      4965.83
 1010      772.746      4964.67
 1011      773.122      4991.75
 1012      773.498      5016.58
 1013      773.874      5019.83
 1014       774.25      5021.58
 1015      774.625      5027.33
 1016      775.001      5026.67
 1017      775.376      5021.17
 1018      775.751      5011.17
 1019      776.127      5004.08
 1020      776.502      5009.67
 1021      776.877      5012.75
 1022      777.252       5019.5
 1023      777.626      5029.25
 1024      778.001      5038.25
 1025      778.375      5050.42
 1026       778.75      5053.83
 1027      779.124      5060.33
 1028      779.499      5078.83
 1029      779.873      5080.08
 1030      780.247      5073.75
 1031      780.621       5063.5
 1032      780.994      5054.92
 1033      781.368      5067.25
 1034      781.742      5078.92
 1035      782.115      5087.33
 1036      782.489      5109.17
 1037      782.862      5130.17
 1038      783.235      5133.75
 1039      783.608         5125
 1040      783.981      5107.67
 1041      784.354      5097.25
 1042      784.727       5089.5
 1043        785.1      5070.83
 1044      785.472       5061.5
 1045      785.845      5070.75
 1046      786.217      5069.83
 1047      786.589         5050
 1048      786.961         5035
 1049      787.333      5024.58
 1050      787.705      5024.83
 1051      788.077      5026.92
 1052      788.449      5022.67
 1053       788.82      5031.58
 1054      789.192      5050.75
 1055      789.563      5060.67
 1056      789.934      5059.83
 1057      790.306      5059.08
 1058      790.677      5064.83
 1059      791.048      5060.42
 1060      791.419       5039.5
 1061      791.789      5018.75
 1062       792.16      5006.58
 1063       792.53       4997.5
 1064      792.901      4997.67
 1065      793.271      5015.58
 1066      793.641      5012.08
 1067      794.012      4982.25
 1068      794.382      4965.33
 1069      794.751         4962
 1070      795.121      4949.92
 1071      795.491      4937.92
 1072      795.861      4931.75
 1073       796.23      4928.83
 1074      796.599      4936.42
 1075      796.969      4949.08
 1076      797.338      4958.42
 1077      797.707      4966.92
 1078      798.076      4968.08
 1079      798.445      4958.17
 1080      798.813       4945.5
 1081      799.182      4915.83
 1082       799.55      4891.33
 1083      799.919      4887.17
 1084      800.287      4879.67
 1085      800.655      4884.25
 1086      801.023      4909.33
 1087      801.391      4929.42
 1088      801.759      4937.42
 1089      802.127      4937.58
 1090      802.495      4938.75
 1091      802.862      4935.25
 1092       803.23      4917.08
 1093      803.597         4899
 1094      803.964      4892.58
 1095      804.331      4879.75
 1096      804.698      4871.83
 1097      805.065      4870.42
 1098      805.432      4852.42
 1099      805.799      4844.58
 1100      806.165      4844.58
 1101      806.532      4839.08
 1102      806.898      4841.83
 1103      807.264      4839.75
 1104      807.631      4826.33
 1105      807.997      4814.33
 1106      808.363      4818.08
 1107      808.728      4827.42
 1108      809.094       4832.5
 1109       809.46       4827.5
 1110      809.825      4826.33
 1111      810.191      4821.33
 1112      810.556         4811
 1113      810.921      4809.33
 1114      811.286      4807.25
 1115      811.651      4797.67
 1116      812.016      4776.25
 1117      812.381      4758.75
 1118      812.745      4749.83
 1119       813.11         4745
 1120      813.474      4736.25
 1121      813.839       4720.5
 1122      814.203      4707.33
 1123      814.567      4698.58
 1124      814.931      4674.67
 1125      815.295      4654.75
 1126      815.659      4669.25
 1127      816.022      4662.17
 1128      816.386      4625.83
 1129      816.749      4605.33
 1130      817.113      4595.58
 1131      817.476      4586.75
 1132      817.839      4585.92
 1133      818.202      4597.83
 1134      818.565      4612.67
 1135      818.928      4606.92
 1136      819.291         4595
 1137      819.653      4589.83
 1138      820.016      4585.42
 1139      820.378      4576.42
 1140       820.74      4560.92
 1141      821.102      4564.83
 1142      821.464         4554
 1143      821.826      4530.25
 1144      822.188      4518.58
 1145       822.55      4498.25
 1146      822.912      4484.92
 1147      823.273      4487.33
 1148      823.634         4490
 1149      823.996      4489.58
 1150      824.357      4482.75
 1151      824.718      4464.67
 1152      825.079         4460
 1153       825.44         4461
 1154      825.801       4441.5
 1155      826.161       4424.5
 1156      826.522      4413.58
 1157      826.882         4407
 1158      827.242      4401.58
 1159      827.603       4402.5
 1160      827.963       4419.5
 1161      828.323      4440.25
 1162      828.682      4459.83
 1163      829.042      4455.17
 1164      829.402      4430.75
 1165      829.761      4413.83
 1166      830.121      4401.08
 1167       830.48         4385
 1168      830.839       4365.5
 1169      831.198      4346.92
 1170      831.557      4334.67
 1171      831.916      4319.83
 1172      832.275         4304
 1173      832.634      4281.92
 1174      832.992      4255.75
 1175      833.351      4227.75
 1176      833.709      4207.83
 1177      834.067       4204.5
 1178      834.425      4203.92
 1179      834.783      4201.67
 1180      835.141      4198.25
 1181      835.499      4187.58
 1182      835.857      4186.92
 1183      836.214      4190.33
 1184      836.572      4195.08
 1185      836.929       4207.5
 1186      837.286      4204.25
 1187      837.644      4200.08
 1188      838.001      4185.92
 1189      838.357      4169.42
 1190      838.714       4163.5
 1191      839.071      4144.25
 1192      839.428      4116.08
 1193      839.784      4099.83
 1194       840.14      4095.17
 1195      840.497      4079.33
 1196      840.853      4059.83
 1197      841.209      4039.67
 1198      841.565      4021.33
 1199       841.92      4014.67
 1200      842.276      4020.75
 1201      842.632      4028.17
 1202      842.987      4040.92
 1203      843.343      4057.42
 1204      843.698      4059.92
 1205      844.053      4053.75
 1206      844.408      4061.58
 1207      844.763      4062.58
 1208      845.118      4045.08
 1209      845.472      4036.42
 1210      845.827       4029.5
 1211      846.181       4031.5
 1212      846.536      4035.58
 1213       846.89         4033
 1214      847.244      4036.33
 1215      847.598      4031.67
 1216      847.952      4027.08
 1217      848.306      4018.17
 1218       848.66       4003.5
 1219      849.013      3993.67
 1220      849.367      3984.42
 1221       849.72      3963.75
 1222      850.073      3951.42
 1223      850.427      3953.33
 1224       850.78      3951.58
 1225      851.133      3945.58
 1226      851.485       3935.5
 1227      851.838      3933.08
 1228      852.191      3936.17
 1229      852.543      3945.58
 1230      852.896      3954.42
 1231      853.248      3941.42
 1232        853.6      3923.08
 1233      853.952      3918.58
 1234      854.304      3918.17
 1235      854.656      3898.17
 1236      855.007      3874.42
 1237      855.359      3871.17
 1238       855.71      3870.33
 1239      856.062      3865.42
 1240      856.413      3851.08
 1241      856.764      3832.33
 1242      857.115         3809
 1243      857.466       3799.5
 1244      857.817      3795.83
 1245      858.168         3785
 1246      858.518      3780.75
 1247      858.869      3769.92
 1248      859.219      3755.75
 1249      859.569      3752.25
 1250       859.92      3749.42
 1251       860.27      3740.75
 1252      860.619      3745.58
 1253      860.969      3761.92
 1254      861.319       3774.5
 1255      861.669      3781.25
 1256      862.018      3784.42
 1257      862.367       3787.5
 1258      862.717      3782.92
 1259      863.066      3770.33
 1260      863.415         3762
 1261      863.764      3748.25
 1262      864.112         3733
 1263      864.461       3720.5
 1264       864.81      3708.42
 1265      865.158      3700.17
 1266      865.507       3698.5
 1267      865.855      3697.58
 1268      866.203      3699.17
 1269      866.551      3707.42
 1270      866.899      3709.58
 1271      867.247      3704.17
 1272      867.594      3688.42
 1273      867.942      3669.58
 1274      868.289      3654.42
 1275      868.637      3646.83
 1276      868.984      3653.17
 1277      869.331      3664.25
 1278      869.678      3669.92
 1279      870.025       3673.5
 1280      870.372      3663.67
 1281      870.718      3653.25
 1282      871.065      3647.92
 1283      871.411      3628.33
 1284      871.758      3606.67
 1285      872.104      3595.92
 1286       872.45      3586.17
 1287      872.796      3589.08
 1288      873.142      3605.42
 1289      873.488      3612.08
 1290      873.833      3603.08
 1291      874.179      3592.25
 1292      874.524         3596
 1293      874.869      3591.83
 1294      875.215      3587.42
 1295       875.56      3591.83
 1296      875.905      3583.92
 1297       876.25      3570.75
 1298      876.594      3568.75
 1299      876.939      3566.92
 1300      877.283      3546.67
 1301      877.628      3521.42
 1302      877.972       3504.5
 1303      878.316         3494
 1304       878.66      3474.08
 1305      879.004      3446.42
 1306      879.348      3429.67
 1307      879.692         3418
 1308      880.035      3410.92
 1309      880.379      3413.08
 1310      880.722         3416
 1311      881.066      3423.75
 1312      881.409      3427.75
 1313      881.752      3428.17
 1314      882.095      3423.67
 1315      882.438      3419.83
 1316       882.78      3424.75
 1317      883.123      3426.08
 1318      883.465      3413.75
 1319      883.808      3411.92
 1320       884.15      3420.58
 1321      884.492      3427.33
 1322      884.834      3426.58
 1323      885.176      3420.42
 1324      885.518      3419.33
 1325      885.859      3423.25
 1326      886.201      3423.17
 1327      886.542       3417.5
 1328      886.884      3411.75
 1329      887.225      3407.92
 1330      887.566      3403.33
 1331      887.907      3402.83
 1332      888.248      3402.17
 1333      888.589      3402.08
 1334      888.929      3404.17
 1335       889.27         3396
 1336       889.61      3377.75
 1337      889.951      3363.08
 1338      890.291      3348.33
 1339      890.631      3335.33
 1340      890.971      3327.58
 1341      891.311      3318.42
 1342       891.65      3311.25
 1343       891.99      3298.08
 1344      892.329      3292.33
 1345      892.669         3286
 1346      893.008       3272.5
 1347      893.347      3261.75
 1348      893.686      3255.25
 1349      894.025      3246.33
 1350      894.364      3238.42
 1351      894.703      3234.17
 1352      895.041      3233.25
 1353       895.38      3239.25
 1354      895.718       3236.5
 1355      896.056         3234
 1356      896.395      3233.58
 1357      896.733      3226.75
 1358      897.071      3211.25
 1359      897.408      3182.75
 1360      897.746         3164
 1361      898.084      3172.67
 1362      898.421      3177.67
 1363      898.758      3167.92
 1364      899.095      3161.67
 1365      899.433      3166.33
 1366       899.77      3167.58
 1367      900.106      3166.25
 1368      900.443      3162.83
 1369       900.78      3164.25
 1370      901.116      3166.83
 1371      901.453         3162
 1372      901.789      3165.83
 1373      902.125      3168.08
 1374      902.461      3164.67
 1375      902.797      3160.92
 1376      903.133      3157.58
 1377      903.469      3143.08
 1378      903.804      3132.58
 1379       904.14         3138
 1380      904.475      3131.08
 1381       904.81       3122.5
 1382      905.146      3112.08
 1383      905.481      3094.33
 1384      905.815         3091
 1385       906.15      3082.83
 1386      906.485      3063.25
 1387      906.819      3046.67
 1388      907.154      3032.17
 1389      907.488      3028.75
 1390      907.822      3034.17
 1391      908.156      3038.17
 1392       908.49      3040.67
 1393      908.824         3026
 1394      909.158      3012.17
 1395      909.492      3009.83
 1396      909.825      3002.25
 1397      910.159      2993.08
 1398      910.492      2987.83
 1399      910.825         2981
 1400      911.158      2974.83
 1401      911.491       2971.5
 1402      911.824       2967.5
 1403      912.157      2962.17
 1404      912.489      2957.08
 1405      912.822      2956.08
 1406      913.154       2946.5
 1407      913.486      2930.58
 1408      913.818      2930.17
 1409       914.15      2930.83
 1410      914.482         2910
 1411      914.814      2890.58
 1412      915.146      2877.83
 1413      915.477         2861
 1414      915.809      2851.67
 1415       916.14      2847.17
 1416      916.471      2838.42
 1417      916.802      2824.83
 1418      917.133      2819.08
 1419      917.464      2812.25
 1420      917.795      2805.42
 1421      918.125      2799.58
 1422      918.456         2788
 1423      918.786      2783.58
 1424      919.116      2782.17
 1425      919.446      2772.08
 1426      919.776      2763.58
 1427      920.106      2760.67
 1428      920.436      2755.83
 1429      920.766      2754.33
 1430      921.095      2750.33
 1431      921.425      2744.92
 1432      921.754      2747.33
 1433      922.083      2749.83
 1434      922.412      2751.33
 1435      922.741      2750.17
 1436       923.07      2752.67
 1437      923.399      2744.42
 1438      923.727      2718.75
 1439      924.056      2701.75
 1440      924.384      2686.17
 1441      924.713      2667.58
 1442      925.041       2662.5
 1443      925.369       2668.5
 1444      925.697      2666.33
 1445      926.024         2658
 1446      926.352      2650.83
 1447       926.68      2639.25
 1448      927.007       2623.5
 1449      927.334      2612.67
 1450      927.662      2610.42
 1451      927.989      2602.75
 1452      928.316      2589.58
 1453      928.643      2583.33
 1454      928.969      2579.92
 1455      929.296      2570.83
 1456      929.622      2557.58
 1457      929.949      2551.08
 1458      930.275      2544.83
 1459      930.601      2541.17
 1460      930.927      2534.67
 1461      931.253      2524.67
 1462      931.579      2513.25
 1463      931.905      2497.33
 1464       932.23      2486.92
 1465      932.556      2480.08
 1466      932.881      2473.08
 1467      933.206      2460.83
 1468      933.531      2448.83
 1469      933.856      2442.58
 1470      934.181      2440.42
 1471      934.506         2434
 1472       934.83      2422.67
 1473      935.155         2419
 1474      935.479      2421.33
 1475      935.803      2414.75
 1476      936.128      2407.17
 1477      936.452      2410.58
 1478      936.775      2410.42
 1479      937.099      2402.33
 1480      937.423      2388.58
 1481      937.746      2375.92
 1482       938.07      2362.92
 1483      938.393         2352
 1484      938.716         2346
 1485      939.039      2335.67
 1486      939.362      2328.67
 1487      939.685      2324.83
 1488      940.008      2313.58
 1489      940.331         2307
 1490      940.653      2301.92
 1491      940.975      2291.08
 1492      941.298         2280
 1493       941.62      2272.83
 1494      941.942      2261.75
 1495      942.264      2255.83
 1496      942.585      2256.17
 1497      942.907      2252.33
 1498      943.229         2241
 1499       943.55      2228.83
 1500      943.871      2216.25
 1501      944.192      2209.67
 1502      944.513      2209.83
 1503      944.834      2202.83
 1504      945.155       2195.5
 1505      945.476      2192.33
 1506      945.796         2184
 1507      946.117      2166.67
 1508      946.437         2142
 1509      946.757      2112.83
 1510      947.078      2080.75
 1511      947.398      2053.67
 1512      947.717      2043.25
 1513      948.037      2045.25
 1514      948.357      2048.25
 1515      948.676      2057.25
 1516      948.996      2069.75
 1517      949.315      2072.67
 1518      949.634      2077.67
 1519      949.953      2084.75
 1520      950.272      2082.58
 1521      950.591      2076.17
 1522      950.909      2069.42
 1523      951.228      2065.33
 1524      951.546      2059.67
 1525      951.865       2048.5
 1526      952.183         2036
 1527      952.501      2025.58
 1528      952.819      2019.58
 1529      953.137      2018.33
 1530      953.454      2020.92
 1531      953.772      2024.42
 1532      954.089      2019.33
 1533      954.407       2005.5
 1534      954.724      1987.17
 1535      955.041      1970.75
 1536      955.358      1961.08
 1537      955.675      1951.33
 1538      955.992      1942.92
 1539      956.308      1934.92
 1540      956.625      1928.75
 1541      956.941      1926.83
 1542      957.257      1920.25
 1543      957.574      1913.08
 1544       957.89      1907.67
 1545      958.206      1898.08
 1546      958.521         1892
 1547      958.837      1886.83
 1548      959.152      1879.83
 1549      959.468      1872.25
 1550      959.783      1864.58
 1551      960.098      1858.92
 1552      960.413      1849.25
 1553      960.728      1836.92
 1554      961.043      1828.42
 1555      961.358      1819.83
 1556      961.672         1811
 1557      961.987      1803.75
 1558      962.301      1791.67
 1559      962.615       1778.5
 1560       962.93      1769.67
 1561      963.244      1761.92
 1562      963.557      1757.42
 1563      963.871      1753.75
 1564      964.185      1746.42
 1565      964.498      1744.08
 1566      964.812      1749.42
 1567      965.125      1743.75
 1568      965.438       1731.5
 1569      965.751      1722.83
 1570      966.064       1715.5
 1571      966.377         1712
 1572      966.689      1712.25
 1573      967.002      1708.67
 1574      967.314      1700.17
 1575      967.626      1690.58
 1576      967.939      1683.08
 1577      968.251      1680.58
 1578      968.563      1676.58
 1579      968.874      1671.67
 1580      969.186      1666.92
 1581      969.498      1656.58
 1582      969.809      1647.25
 1583       970.12      1637.58
 1584      970.431      1629.08
 1585      970.743         1625
 1586      971.053      1615.25
 1587      971.364      1608.58
 1588      971.675      1605.33
 1589      971.986      1599.08
 1590      972.296         1589
 1591      972.606      1581.42
 1592      972.917       1580.5
 1593      973.227      1576.75
 1594      973.537      1573.08
 1595      973.847      1566.58
 1596      974.156      1558.42
 1597      974.466       1554.5
 1598      974.775      1551.83
 1599      975.085      1550.67
 1600      975.394      1550.17
 1601      975.703      1549.92
 1602      976.012      1545.25
 1603      976.321      1537.17
 1604       976.63      1531.67
 1605      976.938      1528.33
 1606      977.247      1519.92
 1607      977.555      1506.33
 1608      977.863      1495.42
 1609      978.172      1488.75
 1610       978.48      1482.83
 1611      978.787      1475.75
 1612      979.095      1467.75
 1613      979.403      1460.58
 1614       979.71      1455.17
 1615      980.018       1449.5
 1616      980.325      1442.42
 1617      980.632      1438.33
 1618      980.939      1435.58
 1619      981.246      1427.83
 1620      981.553      1424.75
 1621       981.86      1424.75
 1622      982.166         1421
 1623      982.473      1414.75
 1624      982.779      1409.08
 1625      983.085      1403.83
 1626      983.391      1400.33
 1627      983.697       1395.5
 1628      984.003      1385.17
 1629      984.309      1372.08
 1630      984.614      1363.58
 1631       984.92      1358.75
 1632      985.225      1355.33
 1633       985.53         1350
 1634      985.835      1342.33
 1635       986.14      1332.17
 1636      986.445      1323.75
 1637       986.75      1317.33
 1638      987.054      1309.75
 1639      987.359      1299.83
 1640      987.663      1293.33
 1641      987.967         1286
 1642      988.271      1275.08
 1643      988.575      1263.58
 1644      988.879      1257.25
 1645      989.183      1249.17
 1646      989.487      1237.92
 1647       989.79      1228.92
 1648      990.093      1222.08
 1649      990.397      1216.33
 1650        990.7      1210.83
 1651      991.003      1202.58
 1652      991.306         1190
 1653      991.608      1181.25
 1654      991.911       1175.5
 1655      992.213      1165.08
 1656      992.516      1153.58
 1657      992.818      1145.33
 1658       993.12      1138.25
 1659      993.422      1130.33
 1660      993.724      1125.08
 1661      994.026         1122
 1662      994.327      1113.92
 1663      994.629         1106
 1664       994.93      1102.33
 1665      995.232      1098.25
 1666      995.533      1089.58
 1667      995.834      1080.58
 1668      996.135      1075.75
 1669      996.435      1069.67
 1670      996.736      1061.75
 1671      997.036      1056.42
 1672      997.337      1054.33
 1673      997.637      1051.08
 1674      997.937      1044.42
 1675      998.237      1036.42
 1676      998.537      1028.25
 1677      998.837       1021.5
 1678      999.137      1015.42
 1679      999.436      1009.83
 1680      999.735      1002.67
 1681      1000.03       996.75
 1682      1000.33      991.917
 1683      1000.63      986.917
 1684      1000.93       981.75
 1685      1001.23       974.75
 1686      1001.53          968
 1687      1001.83       963.25
 1688      1002.13       956.75
 1689      1002.42      950.333
 1690      1002.72      947.333
 1691      1003.02      944.667
 1692      1003.32          939
 1693      1003.62      930.417
 1694      1003.91      926.167
 1695      1004.21      920.333
 1696      1004.51       914.25
 1697      1004.81      912.333
 1698       1005.1       907.75
 1699       1005.4      903.667
 1700       1005.7      900.833
 1701      1005.99      897.583
 1702      1006.29      895.833
 1703      1006.59      892.583
 1704      1006.88       886.75
 1705      1007.18      879.667
 1706      1007.48      876.583
 1707      1007.77      873.917
 1708      1008.07      868.583
 1709      1008.36      863.417
 1710      1008.66      859.917
 1711      1008.95          857
 1712      1009.25       853.25
 1713      1009.55        849.5
 1714      1009.84       845.75
 1715      1010.14      842.583
 1716      1010.43      838.333
 1717      1010.73      832.583
 1718      1011.02       828.75
 1719      1011.31      827.417
 1720      1011.61      827.917
 1721       1011.9      825.583
 1722       1012.2      819.917
 1723      1012.49       815.75
 1724      1012.79      810.667
 1725      1013.08      805.417
 1726      1013.37          803
 1727      1013.67      798.917
 1728      1013.96      794.667
 1729      1014.25        793.5
 1730      1014.55      792.833
 1731      1014.84       789.75
 1732      1015.13        787.5
 1733      1015.42      785.167
 1734      1015.72      780.833
 1735      1016.01      776.917
 1736       1016.3      775.167
 1737      1016.59      772.917
 1738      1016.89          770
 1739      1017.18      767.667
 1740      1017.47          764
 1741      1017.76      761.167
 1742      1018.05       757.25
 1743      1018.35      752.417
 1744      1018.64      750.417
 1745      1018.93      748.417
 1746      1019.22      744.833
 1747      1019.51      742.083
 1748       1019.8      741.833
 1749      1020.09      740.833
 1750      1020.38      739.083
 1751      1020.67       736.25
 1752      1020.96      732.667
 1753      1021.25          729
 1754      1021.54      725.083
 1755      1021.83        724.5
 1756      1022.12      724.167
 1757      1022.41      721.833
 1758       1022.7      718.833
 1759      1022.99          717
 1760      1023.28      715.833
 1761      1023.57      714.417
 1762      1023.86      715.333
 1763      1024.15       713.25
 1764      1024.44       709.25
 1765      1024.73      707.583
 1766      1025.02        707.5
 1767       1025.3      706.333
 1768      1025.59      704.333
 1769      1025.88      703.917
 1770      1026.17          703
 1771      1026.46          702
 1772      1026.74      700.167
 1773      1027.03      698.667
 1774      1027.32       696.75
 1775      1027.61       694.75
 1776      1027.89      695.083
 1777      1028.18        694.5
 1778      1028.47      694.667
 1779      1028.76       695.75
 1780      1029.04      695.333
 1781      1029.33       693.25
 1782      1029.62       692.75
 1783       1029.9       693.25
 1784      1030.19      692.083
 1785      1030.47       690.75
 1786      1030.76      690.917
 1787      1031.05      690.083
 1788      1031.33      689.583
 1789      1031.62          689
 1790       1031.9        688.5
 1791      1032.19       687.25
 1792      1032.47       686.75
 1793      1032.76          687
 1794      1033.04          688
 1795      1033.33      688.917
 1796      1033.61      687.083
 1797       1033.9      685.583
 1798      1034.18       686.75
 1799      1034.47      686.083
 1800      1034.75      685.083
 1801      1035.04       685.75
 1802      1035.32       686.25
 1803       1035.6      685.333
 1804      1035.89       683.75
 1805      1036.17      684.417
 1806      1036.45       686.25
 1807      1036.74      686.083
 1808      1037.02      685.333
 1809       1037.3      686.333
 1810      1037.59      686.833
 1811      1037.87          686
 1812      1038.15      684.333
 1813      1038.44          684
 1814      1038.72       684.25
 1815         1039          684
 1816      1039.28          684
 1817      1039.56      683.583
 1818      1039.85      684.333
 1819      1040.13      685.083
 1820      1040.41        686.5
 1821      1040.69      687.417
 1822      1040.97      687.333
 1823      1041.25      683.667
 1824      1041.54          683
 1825      1041.82      684.333
 1826       1042.1      684.417
 1827      1042.38      683.333
 1828      1042.66      682.583
 1829      1042.94      683.667
 1830      1043.22      684.167
 1831       1043.5      685.083
 1832      1043.78      686.167
 1833      1044.06      687.583
 1834      1044.34          687
 1835      1044.62      686.417
 1836       1044.9      686.833
 1837      1045.18      688.417
 1838      1045.46      690.083
 1839      1045.74       689.75
 1840      1046.02      689.417
 1841       1046.3      689.083
 1842      1046.58      687.583
 1843      1046.85      688.167
 1844      1047.13      687.583
 1845      1047.41      686.417
 1846      1047.69      687.417
 1847      1047.97       690.25
 1848      1048.25      691.167
 1849      1048.52       689.75
 1850       1048.8      688.667
 1851      1049.08      686.917
 1852      1049.36       684.75
 1853      1049.63      685.333
 1854      1049.91      685.333
 1855      1050.19      684.333
 1856      1050.47       684.25
 1857      1050.74      684.083
 1858      1051.02      683.083
 1859       1051.3       682.25
 1860      1051.57       681.75
 1861      1051.85      681.667
 1862      1052.13      683.083
 1863       1052.4      684.083
 1864      1052.68       684.75
 1865      1052.95       685.25
 1866      1053.23       685.25
 1867      1053.51       686.75
 1868      1053.78       688.25
 1869      1054.06        688.5
 1870      1054.33        687.5
 1871      1054.61       683.75
 1872      1054.88       682.25
 1873      1055.16      684.083
 1874      1055.43       684.75
 1875      1055.71      685.083
 1876      1055.98        685.5
 1877      1056.25      686.167
 1878      1056.53       686.75
 1879       1056.8      685.667
 1880      1057.08      685.083
 1881      1057.35      685.917
 1882      1057.62      688.167
 1883       1057.9      689.333
 1884      1058.17      688.583
 1885      1058.45      688.833
 1886      1058.72      688.417
 1887      1058.99          688
 1888      1059.26      684.667
 1889      1059.54      683.833
 1890      1059.81      686.833
 1891      1060.08      688.667
 1892      1060.35      688.333
 1893      1060.63      687.083
 1894       1060.9      684.917
 1895      1061.17      682.417
 1896      1061.44      681.333
 1897      1061.71      683.167
 1898      1061.99      684.917
 1899      1062.26       684.25
 1900      1062.53      681.833
 1901       1062.8       682.25
 1902      1063.07      684.917
 1903      1063.34      686.083
 1904      1063.61      685.583
 1905      1063.88       683.75
 1906      1064.15      682.917
 1907      1064.42      682.917
 1908       1064.7      684.667
 1909      1064.97          685
 1910      1065.24       682.25
 1911      1065.51      682.167
 1912      1065.78      684.167
 1913      1066.04      684.333
 1914      1066.31          685
 1915      1066.58       684.25
 1916      1066.85       684.25
 1917      1067.12       684.25
 1918      1067.39       682.75
 1919      1067.66        682.5
 1920      1067.93      682.333
 1921       1068.2       680.75
 1922      1068.47      680.917
 1923      1068.73      683.917
 1924         1069      683.917
 1925      1069.27      682.417
 1926      1069.54      682.917
 1927      1069.81          684
 1928      1070.07       684.75
 1929      1070.34      686.083
 1930      1070.61       687.75
 1931      1070.88      687.167
 1932      1071.14       685.25
 1933      1071.41        684.5
 1934      1071.68          685
 1935      1071.94       685.75
 1936      1072.21      684.417
 1937      1072.48          683
 1938      1072.74      682.417
 1939      1073.01      682.167
 1940      1073.28          683
 1941      1073.54        682.5
 1942      1073.81      681.917
 1943      1074.07      682.167
 1944      1074.34       682.75
 1945       1074.6       684.75
 1946      1074.87      683.583
 1947      1075.13       683.25
 1948       1075.4          686
 1949      1075.66      687.333
 1950      1075.93       686.25
 1951      1076.19      685.083
 1952      1076.46      684.333
 1953      1076.72      684.583
 1954      1076.99      685.833
 1955      1077.25      686.083
 1956      1077.52      686.083
 1957      1077.78      685.833
 1958      1078.04      684.833
 1959      1078.31      685.417
 1960      1078.57       685.25
 1961      1078.83      682.917
 1962       1079.1          683
 1963      1079.36      682.583
 1964      1079.62      681.917
 1965      1079.89      681.167
 1966      1080.15      682.833
 1967      1080.41      684.167
 1968      1080.67      682.417
 1969      1080.94      682.167
 1970       1081.2      684.583
 1971      1081.46      686.083
 1972      1081.72      686.083
 1973      1081.98      686.083
 1974      1082.24      685.583
 1975      1082.51      685.667
 1976      1082.77      685.583
 1977      1083.03      685.083
 1978      1083.29          684
 1979      1083.55        683.5
 1980      1083.81      683.417
 1981      1084.07          684
 1982      1084.33       684.75
 1983      1084.59       684.75
 1984      1084.85       686.25
 1985      1085.11        685.5
 1986      1085.37      685.167
 1987      1085.63      686.667
 1988      1085.89      687.167
 1989      1086.15      686.917
 1990      1086.41      686.917
 1991      1086.67      687.583
 1992      1086.93      685.417
 1993      1087.19      683.833
 1994      1087.45      684.333
 1995      1087.71        683.5
 1996      1087.97       683.75
 1997      1088.23      686.083
 1998      1088.48          687
 1999      1088.74      685.417
 2000         1089      683.333
 2001      1089.26      682.083
 2002      1089.52      682.417
 2003      1089.77       682.25
 2004      1090.03      683.917
 2005      1090.29          686
 2006      1090.55      685.167
 2007       1090.8      683.167
 2008      1091.06      683.583
 2009      1091.32      684.833
 2010      1091.57       687.75
 2011      1091.83      687.417
 2012      1092.09      686.833
 2013      1092.34      684.417
 2014       1092.6       682.25
 2015      1092.86       683.25
 2016      1093.11      684.417
 2017      1093.37        684.5
 2018      1093.62      685.333
 2019      1093.88          686
 2020      1094.13          686
 2021      1094.39      686.167
 2022      1094.65      685.917
 2023       1094.9       684.75
 2024      1095.16       683.75
 2025      1095.41      684.667
 2026      1095.66       685.25
 2027      1095.92        685.5
 2028      1096.17       686.25
 2029      1096.43       685.75
 2030      1096.68      683.667
 2031      1096.94      683.083
 2032      1097.19        683.5
 2033      1097.44      683.167
 2034       1097.7      682.917
 2035      1097.95       682.25
 2036       1098.2          682
 2037      1098.46      682.333
 2038      1098.71      682.667
 2039      1098.96          684
 2040      1099.22        685.5
 2041      1099.47       686.25
 2042      1099.72      686.917
 2043      1099.97       687.25
 2044      1100.23      684.667
 2045      1100.48       682.75
 2046      1100.73      682.417
 2047      1100.98       687.25
