scansci Spectrometer Data File
--- Measurement Setting ---
Type: Sample Spectrum
Date: Tue Nov 11 11:47:16 2025
User: (Reserved by scansci)
Serial: (Reserved by scansci)
Channel: No. 11
Integration Time: 9
Average: 12
Boxcar: 0
Electrical Dark: No-corrected
Time Normalize: (Reserved by scansci)
Dual-beam: (Reserved by scansci)
Reference Ch: (Reserved by scansci)
--- Measurement Data ---
Pixel   Wavelength   Intensity
    0        344.4      681.667
    1      344.867          683
    2      345.334      684.333
    3      345.801      684.333
    4      346.268      684.083
    5      346.735          685
    6      347.202      685.667
    7      347.669       684.25
    8      348.135      685.083
    9      348.602      686.583
   10      349.068      687.417
   11      349.535       686.75
   12      350.001        684.5
   13      350.467          685
   14      350.933       687.25
   15      351.399      687.667
   16      351.866      686.083
   17      352.331        684.5
   18      352.797      685.167
   19      353.263       686.75
   20      353.729          688
   21      354.194      687.083
   22       354.66      688.667
   23      355.126       690.75
   24      355.591      690.667
   25      356.056      688.417
   26      356.522      686.917
   27      356.987      687.917
   28      357.452      687.167
   29      357.917        685.5
   30      358.382          686
   31      358.847      686.833
   32      359.312      686.417
   33      359.776        687.5
   34      360.241       687.25
   35      360.706      686.333
   36       361.17      687.083
   37      361.634      688.333
   38      362.099      689.167
   39      362.563      687.417
   40      363.027          686
   41      363.491      686.167
   42      363.955      686.833
   43      364.419      687.083
   44      364.883      688.083
   45      365.347      689.083
   46      365.811      685.833
   47      366.274      684.167
   48      366.738      685.583
   49      367.201      684.917
   50      367.665      685.583
   51      368.128          686
   52      368.592      685.917
   53      369.055      685.667
   54      369.518          685
   55      369.981       684.75
   56      370.444      685.833
   57      370.907       685.75
   58       371.37      684.333
   59      371.832      685.333
   60      372.295      686.917
   61      372.757      686.667
   62       373.22      686.083
   63      373.682       687.75
   64      374.145      688.333
   65      374.607      688.083
   66      375.069          686
   67      375.531      685.417
   68      375.993      686.833
   69      376.455      687.583
   70      376.917      688.083
   71      377.379      689.167
   72      377.841      689.417
   73      378.302      691.333
   74      378.764       692.25
   75      379.225      690.167
   76      379.687       690.75
   77      380.148        690.5
   78      380.609      687.583
   79      381.071      688.417
   80      381.532      691.083
   81      381.993        688.5
   82      382.454      686.667
   83      382.915       688.75
   84      383.375      689.333
   85      383.836       688.25
   86      384.297        687.5
   87      384.757        687.5
   88      385.218      686.333
   89      385.678       685.25
   90      386.138       685.25
   91      386.599          684
   92      387.059      682.833
   93      387.519      683.583
   94      387.979      684.583
   95      388.439       684.75
   96      388.899      687.417
   97      389.358        689.5
   98      389.818      690.417
   99      390.278        691.5
  100      390.737        692.5
  101      391.197          691
  102      391.656          688
  103      392.115      687.083
  104      392.575      687.333
  105      393.034      687.583
  106      393.493      686.667
  107      393.952      685.667
  108      394.411      687.083
  109       394.87      688.333
  110      395.328      685.917
  111      395.787       684.75
  112      396.246      684.917
  113      396.704      686.167
  114      397.163      687.417
  115      397.621      687.833
  116      398.079      688.333
  117      398.537       688.25
  118      398.995      687.333
  119      399.454      688.667
  120      399.911        688.5
  121      400.369      686.417
  122      400.827      686.333
  123      401.285      687.667
  124      401.743      689.583
  125        402.2      686.917
  126      402.658      685.583
  127      403.115      685.667
  128      403.572      685.333
  129       404.03      685.917
  130      404.487        686.5
  131      404.944      689.167
  132      405.401      689.417
  133      405.858      686.333
  134      406.315       685.75
  135      406.771      687.083
  136      407.228       685.75
  137      407.685        682.5
  138      408.141      682.833
  139      408.598          685
  140      409.054       685.75
  141       409.51        685.5
  142      409.967      684.417
  143      410.423          684
  144      410.879      685.333
  145      411.335      687.333
  146      411.791      688.333
  147      412.246      688.583
  148      412.702       687.25
  149      413.158       686.75
  150      413.613      686.583
  151      414.069          686
  152      414.524      688.167
  153       414.98      688.333
  154      415.435      687.417
  155       415.89       687.25
  156      416.345      687.083
  157        416.8       687.75
  158      417.255       687.75
  159       417.71      686.667
  160      418.165      686.667
  161      418.619      686.833
  162      419.074       689.25
  163      419.529      690.167
  164      419.983          688
  165      420.437          688
  166      420.892      688.583
  167      421.346       687.75
  168        421.8        688.5
  169      422.254      688.667
  170      422.708       686.25
  171      423.162      685.833
  172      423.616        686.5
  173       424.07       687.75
  174      424.523          688
  175      424.977       688.25
  176       425.43       690.75
  177      425.884      692.083
  178      426.337      690.083
  179       426.79      688.667
  180      427.243      687.667
  181      427.697      688.833
  182       428.15      688.667
  183      428.602      686.583
  184      429.055        685.5
  185      429.508      687.417
  186      429.961        688.5
  187      430.413      690.167
  188      430.866       690.75
  189      431.318      691.917
  190      431.771          694
  191      432.223      692.833
  192      432.675      691.417
  193      433.127      687.583
  194      433.579       686.75
  195      434.031        688.5
  196      434.483      687.833
  197      434.935       686.75
  198      435.387      688.917
  199      435.838      690.083
  200       436.29      690.833
  201      436.741      691.833
  202      437.193      691.167
  203      437.644        689.5
  204      438.095      688.083
  205      438.546       687.25
  206      438.997      687.833
  207      439.448          688
  208      439.899          688
  209       440.35       690.25
  210      440.801      691.667
  211      441.251      691.833
  212      441.702      691.333
  213      442.152      689.667
  214      442.603      689.333
  215      443.053      688.667
  216      443.503      688.083
  217      443.954      688.083
  218      444.404      688.583
  219      444.854      688.333
  220      445.304      688.417
  221      445.753      687.917
  222      446.203      688.833
  223      446.653        690.5
  224      447.102      690.833
  225      447.552        691.5
  226      448.001      690.667
  227      448.451      689.333
  228        448.9       689.75
  229      449.349      689.083
  230      449.798       688.25
  231      450.247      687.917
  232      450.696       686.75
  233      451.145      687.167
  234      451.594       688.25
  235      452.042       687.25
  236      452.491      688.083
  237      452.939      687.083
  238      453.388      687.167
  239      453.836      688.833
  240      454.285      691.333
  241      454.733       691.75
  242      455.181      690.333
  243      455.629      689.417
  244      456.077      690.083
  245      456.525       690.25
  246      456.972       688.75
  247       457.42      687.667
  248      457.868      685.167
  249      458.315          686
  250      458.763      688.083
  251       459.21          688
  252      459.657      685.333
  253      460.104      685.833
  254      460.552      689.083
  255      460.999       689.75
  256      461.446          691
  257      461.892          692
  258      462.339      691.917
  259      462.786      691.167
  260      463.233       691.25
  261      463.679      691.833
  262      464.125       690.75
  263      464.572      689.333
  264      465.018        690.5
  265      465.464       691.25
  266       465.91      688.333
  267      466.356        688.5
  268      466.802       691.75
  269      467.248      692.417
  270      467.694      691.417
  271       468.14        693.5
  272      468.585       695.25
  273      469.031      693.917
  274      469.476      689.417
  275      469.922        687.5
  276      470.367          689
  277      470.812      690.583
  278      471.257       691.75
  279      471.702      692.833
  280      472.147      691.833
  281      472.592      690.833
  282      473.037          690
  283      473.482          690
  284      473.926      688.167
  285      474.371       685.75
  286      474.815      685.833
  287      475.259      688.083
  288      475.704      688.167
  289      476.148       688.25
  290      476.592       689.25
  291      477.036        690.5
  292       477.48      692.333
  293      477.924      692.583
  294      478.368       690.25
  295      478.811      687.833
  296      479.255      688.583
  297      479.698      689.333
  298      480.142      688.167
  299      480.585      688.167
  300      481.028      688.667
  301      481.472      688.083
  302      481.915      689.333
  303      482.358          691
  304      482.801      691.417
  305      483.244       689.75
  306      483.686      688.333
  307      484.129      690.667
  308      484.572      694.583
  309      485.014      693.083
  310      485.456      690.667
  311      485.899       689.75
  312      486.341       689.75
  313      486.783      689.917
  314      487.225      690.917
  315      487.667        692.5
  316      488.109        692.5
  317      488.551      694.333
  318      488.993       694.75
  319      489.434      693.667
  320      489.876      694.417
  321      490.318      695.333
  322      490.759        695.5
  323        491.2      694.833
  324      491.641          694
  325      492.083          695
  326      492.524          696
  327      492.965      696.833
  328      493.406      698.917
  329      493.846      700.667
  330      494.287      700.083
  331      494.728      698.167
  332      495.168      699.167
  333      495.609      699.833
  334      496.049        700.5
  335      496.489      702.083
  336       496.93        702.5
  337       497.37      704.417
  338       497.81      705.583
  339       498.25        706.5
  340       498.69      707.083
  341      499.129          709
  342      499.569      711.167
  343      500.009      713.583
  344      500.448      715.333
  345      500.888      715.917
  346      501.327       716.75
  347      501.766      716.833
  348      502.206      717.417
  349      502.645          721
  350      503.084       721.75
  351      503.523          722
  352      503.961      724.083
  353        504.4      725.833
  354      504.839          727
  355      505.277      729.833
  356      505.716        730.5
  357      506.154      731.917
  358      506.593      735.583
  359      507.031          735
  360      507.469        735.5
  361      507.907      735.667
  362      508.345      737.917
  363      508.783      741.417
  364      509.221      742.333
  365      509.659      745.083
  366      510.096      748.583
  367      510.534      749.083
  368      510.971          750
  369      511.409      752.583
  370      511.846      754.333
  371      512.283       756.25
  372       512.72      757.583
  373      513.157      760.583
  374      513.594      764.833
  375      514.031       765.25
  376      514.468      763.917
  377      514.905       766.75
  378      515.341       769.75
  379      515.778      772.167
  380      516.214      775.833
  381       516.65      778.417
  382      517.087      779.417
  383      517.523       780.25
  384      517.959      783.417
  385      518.395      785.583
  386      518.831      787.083
  387      519.267      790.333
  388      519.702      793.667
  389      520.138      797.917
  390      520.574      801.333
  391      521.009      801.917
  392      521.444      806.083
  393       521.88      808.917
  394      522.315      811.917
  395       522.75      812.833
  396      523.185      812.083
  397       523.62      813.167
  398      524.055      816.083
  399       524.49       819.75
  400      524.924      824.333
  401      525.359      827.667
  402      525.794      830.167
  403      526.228      832.667
  404      526.662      835.583
  405      527.097      838.083
  406      527.531      842.083
  407      527.965      846.333
  408      528.399        849.5
  409      528.833      852.833
  410      529.267          856
  411        529.7      859.833
  412      530.134      863.583
  413      530.568      868.583
  414      531.001      874.167
  415      531.434      876.167
  416      531.868      880.167
  417      532.301      885.417
  418      532.734      888.333
  419      533.167      894.583
  420        533.6      897.833
  421      534.033      899.583
  422      534.466      903.583
  423      534.898      907.833
  424      535.331        912.5
  425      535.763       920.75
  426      536.196      927.083
  427      536.628      930.083
  428       537.06      934.917
  429      537.493       940.25
  430      537.925      942.833
  431      538.357      943.167
  432      538.788      947.167
  433       539.22          951
  434      539.652          955
  435      540.084          962
  436      540.515      968.667
  437      540.947      974.917
  438      541.378      982.833
  439      541.809      988.667
  440       542.24        989.5
  441      542.672      992.167
  442      543.103          996
  443      543.533      999.333
  444      543.964      1004.33
  445      544.395      1008.58
  446      544.826      1011.42
  447      545.256      1016.25
  448      545.687      1022.25
  449      546.117         1026
  450      546.547      1030.67
  451      546.978      1036.25
  452      547.408      1040.83
  453      547.838      1045.33
  454      548.268      1047.17
  455      548.698      1050.25
  456      549.127      1055.42
  457      549.557      1059.25
  458      549.987      1064.58
  459      550.416      1070.83
  460      550.846      1076.42
  461      551.275      1080.92
  462      551.704      1083.25
  463      552.133      1084.75
  464      552.562       1089.5
  465      552.991      1096.83
  466       553.42      1105.42
  467      553.849      1109.92
  468      554.278      1116.58
  469      554.706      1126.17
  470      555.135      1132.33
  471      555.563      1137.25
  472      555.991      1140.83
  473       556.42      1144.33
  474      556.848      1150.17
  475      557.276      1154.67
  476      557.704      1162.25
  477      558.132      1168.42
  478       558.56      1171.83
  479      558.987      1180.08
  480      559.415      1185.33
  481      559.843      1188.58
  482       560.27      1196.17
  483      560.697      1206.08
  484      561.125      1215.75
  485      561.552      1225.17
  486      561.979      1231.17
  487      562.406      1237.17
  488      562.833      1243.17
  489       563.26      1247.42
  490      563.686      1252.83
  491      564.113      1257.17
  492       564.54      1262.17
  493      564.966      1268.42
  494      565.392      1279.58
  495      565.819         1293
  496      566.245      1302.08
  497      566.671      1309.67
  498      567.097      1318.42
  499      567.523      1325.17
  500      567.949      1334.17
  501      568.374      1345.67
  502        568.8      1353.92
  503      569.226      1364.42
  504      569.651      1371.67
  505      570.077       1380.5
  506      570.502      1392.25
  507      570.927      1396.83
  508      571.352      1401.33
  509      571.777      1411.58
  510      572.202      1419.67
  511      572.627      1429.25
  512      573.052      1443.83
  513      573.476      1454.33
  514      573.901      1460.33
  515      574.325      1467.25
  516       574.75       1474.5
  517      575.174      1481.58
  518      575.598      1491.42
  519      576.022      1503.67
  520      576.446      1512.83
  521       576.87      1518.25
  522      577.294       1528.5
  523      577.718      1539.75
  524      578.142      1549.08
  525      578.565      1559.75
  526      578.989      1573.25
  527      579.412      1591.58
  528      579.835      1605.17
  529      580.259      1615.42
  530      580.682      1626.83
  531      581.105      1637.08
  532      581.528       1645.5
  533      581.951      1649.67
  534      582.373      1657.08
  535      582.796      1670.42
  536      583.219      1682.25
  537      583.641      1697.17
  538      584.063      1716.17
  539      584.486      1735.08
  540      584.908      1750.67
  541       585.33      1760.33
  542      585.752      1764.92
  543      586.174      1772.58
  544      586.596      1783.17
  545      587.018      1799.42
  546      587.439         1813
  547      587.861      1827.25
  548      588.282      1843.75
  549      588.704         1854
  550      589.125      1867.17
  551      589.546         1879
  552      589.967         1895
  553      590.388      1914.17
  554      590.809      1930.17
  555       591.23      1947.58
  556      591.651      1969.08
  557      592.071      1986.83
  558      592.492      1995.33
  559      592.912      2008.92
  560      593.333      2025.75
  561      593.753      2038.42
  562      594.173       2044.5
  563      594.593      2054.25
  564      595.013      2072.58
  565      595.433      2088.83
  566      595.853      2102.58
  567      596.273      2108.25
  568      596.693      2114.33
  569      597.112      2130.42
  570      597.532      2143.33
  571      597.951      2149.75
  572       598.37      2161.92
  573      598.789      2165.67
  574      599.208      2171.83
  575      599.627      2188.67
  576      600.046      2203.17
  577      600.465      2218.33
  578      600.884         2226
  579      601.303      2222.17
  580      601.721         2218
  581      602.139      2225.25
  582      602.558      2233.75
  583      602.976      2241.33
  584      603.394      2259.25
  585      603.812      2276.67
  586       604.23      2283.42
  587      604.648      2289.83
  588      605.066      2298.92
  589      605.484      2307.75
  590      605.901      2317.58
  591      606.319      2329.42
  592      606.736      2340.75
  593      607.154      2354.83
  594      607.571      2360.75
  595      607.988       2365.5
  596      608.405      2376.25
  597      608.822         2385
  598      609.239      2394.25
  599      609.656      2406.25
  600      610.072      2421.58
  601      610.489       2432.5
  602      610.905       2436.5
  603      611.322      2447.25
  604      611.738      2453.08
  605      612.154      2457.92
  606       612.57      2473.25
  607      612.986      2486.33
  608      613.402      2501.92
  609      613.818         2514
  610      614.234      2521.83
  611       614.65      2532.83
  612      615.065      2551.25
  613      615.481      2575.75
  614      615.896      2595.33
  615      616.311         2602
  616      616.727      2611.92
  617      617.142      2621.75
  618      617.557      2625.92
  619      617.972      2636.33
  620      618.386      2645.08
  621      618.801      2651.17
  622      619.216      2660.58
  623       619.63      2680.92
  624      620.045      2693.17
  625      620.459      2697.92
  626      620.873      2704.42
  627      621.287         2718
  628      621.702      2736.75
  629      622.116      2747.58
  630      622.529      2749.33
  631      622.943      2763.75
  632      623.357      2786.42
  633      623.771      2802.58
  634      624.184      2818.67
  635      624.597      2833.17
  636      625.011      2845.75
  637      625.424      2850.92
  638      625.837      2862.33
  639       626.25      2874.58
  640      626.663      2875.17
  641      627.076      2881.17
  642      627.489      2893.83
  643      627.901      2906.92
  644      628.314      2919.33
  645      628.726      2933.17
  646      629.139      2940.83
  647      629.551      2943.92
  648      629.963      2956.08
  649      630.375      2963.67
  650      630.787      2982.08
  651      631.199      3003.75
  652      631.611      3011.25
  653      632.023      3020.08
  654      632.434      3033.33
  655      632.846      3045.33
  656      633.257      3054.08
  657      633.669      3067.92
  658       634.08      3082.67
  659      634.491      3089.92
  660      634.902      3103.42
  661      635.313      3112.75
  662      635.724      3114.67
  663      636.135         3132
  664      636.545      3158.58
  665      636.956      3174.67
  666      637.366         3179
  667      637.777      3184.58
  668      638.187      3190.42
  669      638.597      3204.33
  670      639.007      3225.67
  671      639.417      3231.67
  672      639.827      3232.67
  673      640.237      3244.83
  674      640.647      3266.42
  675      641.056      3284.42
  676      641.466      3298.08
  677      641.875      3310.75
  678      642.285      3326.83
  679      642.694      3346.17
  680      643.103      3354.25
  681      643.512      3351.75
  682      643.921       3349.5
  683       644.33       3362.5
  684      644.739      3383.17
  685      645.148      3393.17
  686      645.556      3400.58
  687      645.965      3414.42
  688      646.373      3437.83
  689      646.781      3463.33
  690      647.189      3474.17
  691      647.598      3478.58
  692      648.006      3492.08
  693      648.414      3499.42
  694      648.821      3492.08
  695      649.229       3489.5
  696      649.637         3484
  697      650.044      3484.33
  698      650.452         3499
  699      650.859      3508.17
  700      651.266      3496.25
  701      651.673      3486.33
  702       652.08      3488.67
  703      652.487      3500.33
  704      652.894      3521.75
  705      653.301      3545.17
  706      653.708       3565.5
  707      654.114      3594.33
  708      654.521      3632.17
  709      654.927      3651.42
  710      655.333      3672.17
  711       655.74      3699.58
  712      656.146      3709.83
  713      656.552         3713
  714      656.958         3722
  715      657.363      3728.25
  716      657.769      3723.58
  717      658.175      3735.17
  718       658.58      3767.67
  719      658.986         3796
  720      659.391      3820.42
  721      659.796       3833.5
  722      660.201      3838.25
  723      660.606      3836.92
  724      661.011      3826.42
  725      661.416      3819.75
  726      661.821         3817
  727      662.225      3817.42
  728       662.63       3820.5
  729      663.034      3826.67
  730      663.439       3848.5
  731      663.843       3875.5
  732      664.247      3886.58
  733      664.651      3893.42
  734      665.055      3913.08
  735      665.459      3937.75
  736      665.863      3954.92
  737      666.267         3959
  738       666.67      3966.42
  739      667.074      3974.42
  740      667.477      3983.92
  741       667.88      3993.58
  742      668.283      4002.25
  743      668.687      4016.42
  744       669.09      4024.67
  745      669.492       4033.5
  746      669.895         4035
  747      670.298      4032.17
  748      670.701      4045.08
  749      671.103       4062.5
  750      671.505      4085.42
  751      671.908         4093
  752       672.31      4095.42
  753      672.712      4118.58
  754      673.114      4140.33
  755      673.516      4158.58
  756      673.918      4167.17
  757       674.32      4171.25
  758      674.721      4183.75
  759      675.123      4196.92
  760      675.524      4211.42
  761      675.926      4218.92
  762      676.327      4228.33
  763      676.728      4240.17
  764      677.129      4236.25
  765       677.53      4251.17
  766      677.931      4270.75
  767      678.332      4287.75
  768      678.732      4306.25
  769      679.133      4310.83
  770      679.533      4308.75
  771      679.934      4298.83
  772      680.334      4290.25
  773      680.734      4299.67
  774      681.134      4305.08
  775      681.534      4313.83
  776      681.934      4331.25
  777      682.334      4333.58
  778      682.733      4350.25
  779      683.133         4385
  780      683.532      4423.33
  781      683.932      4454.83
  782      684.331      4468.25
  783       684.73      4472.17
  784      685.129      4473.08
  785      685.528      4475.83
  786      685.927         4476
  787      686.326      4480.92
  788      686.725       4499.5
  789      687.123      4520.67
  790      687.522      4543.83
  791       687.92      4570.67
  792      688.319      4580.08
  793      688.717      4581.17
  794      689.115         4587
  795      689.513      4587.42
  796      689.911      4590.75
  797      690.309      4591.83
  798      690.706      4592.92
  799      691.104      4600.83
  800      691.501      4618.08
  801      691.899      4615.58
  802      692.296      4607.25
  803      692.693      4618.08
  804       693.09      4621.58
  805      693.488      4635.33
  806      693.884      4672.83
  807      694.281      4687.33
  808      694.678       4685.5
  809      695.075      4706.33
  810      695.471      4734.08
  811      695.868      4751.92
  812      696.264      4760.67
  813       696.66         4757
  814      697.056         4757
  815      697.452      4758.75
  816      697.848      4762.83
  817      698.244       4768.5
  818       698.64      4770.67
  819      699.035      4776.25
  820      699.431      4792.92
  821      699.826         4810
  822      700.222      4829.83
  823      700.617      4850.83
  824      701.012      4851.58
  825      701.407      4848.17
  826      701.802      4860.25
  827      702.197      4881.92
  828      702.592       4879.5
  829      702.986      4862.33
  830      703.381      4863.17
  831      703.775      4866.42
  832       704.17       4878.5
  833      704.564      4899.58
  834      704.958      4914.92
  835      705.352       4932.5
  836      705.746       4934.5
  837       706.14      4923.08
  838      706.533         4910
  839      706.927      4893.92
  840      707.321      4903.58
  841      707.714      4924.08
  842      708.107      4924.08
  843      708.501      4923.25
  844      708.894      4924.92
  845      709.287      4923.83
  846       709.68      4931.92
  847      710.073       4948.5
  848      710.465      4960.42
  849      710.858      4968.67
  850      711.251      4987.67
  851      711.643      5004.83
  852      712.035      5008.17
  853      712.428      5009.33
  854       712.82       5006.5
  855      713.212      4979.75
  856      713.604      4944.58
  857      713.995      4931.25
  858      714.387      4918.75
  859      714.779      4898.17
  860       715.17      4897.33
  861      715.562      4921.08
  862      715.953      4950.83
  863      716.344      4953.75
  864      716.735      4943.25
  865      717.127      4956.42
  866      717.517      4977.42
  867      717.908      4974.67
  868      718.299      4967.17
  869       718.69      4967.08
  870       719.08         4957
  871      719.471       4925.5
  872      719.861      4909.92
  873      720.251      4905.83
  874      720.641      4887.25
  875      721.031         4882
  876      721.421       4878.5
  877      721.811         4867
  878      722.201      4870.83
  879       722.59      4878.75
  880       722.98      4872.75
  881      723.369      4871.17
  882      723.759      4867.67
  883      724.148      4855.67
  884      724.537      4846.83
  885      724.926      4843.58
  886      725.315      4848.08
  887      725.704      4845.92
  888      726.092      4842.25
  889      726.481      4848.92
  890       726.87      4841.33
  891      727.258      4813.83
  892      727.646      4794.17
  893      728.034         4789
  894      728.423      4791.67
  895      728.811      4799.75
  896      729.198      4811.67
  897      729.586      4812.67
  898      729.974      4806.17
  899      730.362      4798.92
  900      730.749      4799.58
  901      731.136      4808.25
  902      731.524      4803.25
  903      731.911      4816.25
  904      732.298      4833.75
  905      732.685      4843.17
  906      733.072         4846
  907      733.459      4845.83
  908      733.845      4848.92
  909      734.232      4849.08
  910      734.618      4849.58
  911      735.005         4847
  912      735.391      4850.25
  913      735.777      4857.42
  914      736.163       4862.5
  915      736.549      4864.75
  916      736.935      4862.58
  917      737.321      4868.75
  918      737.706      4870.75
  919      738.092      4868.83
  920      738.477         4877
  921      738.863       4884.5
  922      739.248      4870.42
  923      739.633      4848.25
  924      740.018      4844.83
  925      740.403      4846.67
  926      740.788      4845.92
  927      741.173      4855.25
  928      741.557      4884.25
  929      741.942      4907.25
  930      742.326      4895.33
  931      742.711      4884.25
  932      743.095       4891.5
  933      743.479      4888.33
  934      743.863      4875.75
  935      744.247         4866
  936      744.631      4874.33
  937      745.015         4895
  938      745.398      4901.75
  939      745.782      4908.25
  940      746.165      4928.75
  941      746.548      4938.67
  942      746.932      4930.92
  943      747.315      4916.67
  944      747.698      4911.58
  945      748.081      4915.92
  946      748.463      4926.58
  947      748.846      4940.92
  948      749.229      4955.75
  949      749.611         4959
  950      749.993      4963.83
  951      750.376      4977.33
  952      750.758      4989.58
  953       751.14      4994.92
  954      751.522      4985.42
  955      751.904       4990.5
  956      752.285      4997.75
  957      752.667      5003.58
  958      753.049      5004.67
  959       753.43      4996.67
  960      753.811      4993.58
  961      754.193       4981.5
  962      754.574      4968.17
  963      754.955       4979.5
  964      755.336         5004
  965      755.717      5016.17
  966      756.097         5008
  967      756.478      5008.33
  968      756.858      5004.83
  969      757.239       4988.5
  970      757.619      4992.67
  971      757.999         4991
  972      758.379      4977.08
  973      758.759      4971.25
  974      759.139       4971.5
  975      759.519      4961.25
  976      759.899      4946.08
  977      760.278      4955.92
  978      760.658      4976.75
  979      761.037      4995.83
  980      761.417       5011.5
  981      761.796       5013.5
  982      762.175       5012.5
  983      762.554      5006.67
  984      762.933      4996.67
  985      763.311      4980.58
  986       763.69      4959.58
  987      764.068      4949.33
  988      764.447       4943.5
  989      764.825       4937.5
  990      765.203      4940.83
  991      765.582      4950.25
  992       765.96      4951.92
  993      766.338       4962.5
  994      766.715      4969.58
  995      767.093      4965.58
  996      767.471       4936.5
  997      767.848      4908.83
  998      768.226      4913.58
  999      768.603      4927.25
 1000       768.98      4957.42
 1001      769.357      4991.58
 1002      769.734      5020.75
 1003      770.111       5031.5
 1004      770.488      5028.92
 1005      770.864      5040.17
 1006      771.241      5047.83
 1007      771.617      5037.58
 1008      771.994      5028.92
 1009       772.37      5019.83
 1010      772.746      5015.92
 1011      773.122      5038.67
 1012      773.498      5052.08
 1013      773.874      5050.67
 1014       774.25         5055
 1015      774.625      5050.67
 1016      775.001      5030.17
 1017      775.376         5017
 1018      775.751      5000.58
 1019      776.127      4983.83
 1020      776.502      4987.92
 1021      776.877      5001.17
 1022      777.252      5010.92
 1023      777.626         5015
 1024      778.001      5020.17
 1025      778.375       5015.5
 1026       778.75      5000.75
 1027      779.124       5004.5
 1028      779.499      5030.83
 1029      779.873      5040.08
 1030      780.247      5034.42
 1031      780.621      5017.17
 1032      780.994      5003.75
 1033      781.368      5011.83
 1034      781.742      5013.33
 1035      782.115      5015.83
 1036      782.489         5026
 1037      782.862      5033.92
 1038      783.235      5029.08
 1039      783.608      5017.75
 1040      783.981      4996.33
 1041      784.354      4992.25
 1042      784.727      5000.33
 1043        785.1       4997.5
 1044      785.472      5006.42
 1045      785.845      5026.83
 1046      786.217      5039.42
 1047      786.589      5029.58
 1048      786.961      5014.75
 1049      787.333      5002.58
 1050      787.705      4997.08
 1051      788.077      4995.58
 1052      788.449      4987.42
 1053       788.82      4982.58
 1054      789.192      4996.42
 1055      789.563         5010
 1056      789.934      5007.33
 1057      790.306      4997.75
 1058      790.677      4995.17
 1059      791.048      4994.17
 1060      791.419         4987
 1061      791.789      4976.08
 1062       792.16         4971
 1063       792.53      4969.58
 1064      792.901      4971.67
 1065      793.271      4977.42
 1066      793.641      4976.17
 1067      794.012      4964.17
 1068      794.382      4966.75
 1069      794.751      4990.75
 1070      795.121      5006.75
 1071      795.491       4998.5
 1072      795.861      4975.67
 1073       796.23         4959
 1074      796.599         4949
 1075      796.969      4940.08
 1076      797.338      4924.33
 1077      797.707      4912.17
 1078      798.076      4904.25
 1079      798.445      4888.83
 1080      798.813      4876.25
 1081      799.182       4866.5
 1082       799.55      4858.92
 1083      799.919      4860.83
 1084      800.287      4858.08
 1085      800.655      4861.08
 1086      801.023      4880.75
 1087      801.391      4893.42
 1088      801.759      4896.83
 1089      802.127      4889.08
 1090      802.495      4882.75
 1091      802.862      4886.08
 1092       803.23      4884.17
 1093      803.597      4872.92
 1094      803.964      4864.83
 1095      804.331      4855.25
 1096      804.698       4852.5
 1097      805.065      4850.83
 1098      805.432      4838.25
 1099      805.799      4833.83
 1100      806.165         4843
 1101      806.532      4854.17
 1102      806.898      4859.92
 1103      807.264       4849.5
 1104      807.631      4825.42
 1105      807.997      4809.25
 1106      808.363      4801.67
 1107      808.728       4798.5
 1108      809.094      4798.17
 1109       809.46      4792.75
 1110      809.825      4789.58
 1111      810.191      4774.33
 1112      810.556      4756.17
 1113      810.921      4751.92
 1114      811.286      4736.58
 1115      811.651         4729
 1116      812.016      4722.75
 1117      812.381      4709.75
 1118      812.745         4710
 1119       813.11      4719.92
 1120      813.474         4717
 1121      813.839      4693.83
 1122      814.203      4677.58
 1123      814.567      4684.92
 1124      814.931      4687.75
 1125      815.295      4681.67
 1126      815.659      4699.25
 1127      816.022      4706.75
 1128      816.386      4680.75
 1129      816.749      4663.25
 1130      817.113      4654.33
 1131      817.476      4632.67
 1132      817.839      4613.58
 1133      818.202      4608.58
 1134      818.565      4602.08
 1135      818.928      4585.58
 1136      819.291       4569.5
 1137      819.653      4559.42
 1138      820.016      4561.75
 1139      820.378      4563.42
 1140       820.74      4555.92
 1141      821.102      4560.33
 1142      821.464         4559
 1143      821.826         4553
 1144      822.188      4549.92
 1145       822.55      4531.25
 1146      822.912      4519.83
 1147      823.273      4521.42
 1148      823.634      4519.17
 1149      823.996      4510.67
 1150      824.357      4493.25
 1151      824.718      4474.83
 1152      825.079      4469.08
 1153       825.44      4471.08
 1154      825.801      4470.83
 1155      826.161      4471.92
 1156      826.522      4462.33
 1157      826.882      4448.42
 1158      827.242      4435.67
 1159      827.603      4426.42
 1160      827.963      4425.67
 1161      828.323       4427.5
 1162      828.682      4429.75
 1163      829.042         4423
 1164      829.402      4414.08
 1165      829.761      4405.17
 1166      830.121      4387.08
 1167       830.48         4368
 1168      830.839      4342.33
 1169      831.198      4316.58
 1170      831.557      4307.83
 1171      831.916         4298
 1172      832.275         4291
 1173      832.634      4287.92
 1174      832.992      4277.25
 1175      833.351      4261.08
 1176      833.709      4249.67
 1177      834.067      4252.08
 1178      834.425      4250.67
 1179      834.783      4247.67
 1180      835.141      4237.92
 1181      835.499      4220.42
 1182      835.857       4217.5
 1183      836.214      4209.67
 1184      836.572      4194.58
 1185      836.929      4187.08
 1186      837.286      4173.17
 1187      837.644      4170.25
 1188      838.001       4155.5
 1189      838.357      4145.58
 1190      838.714      4150.75
 1191      839.071         4152
 1192      839.428      4158.75
 1193      839.784      4162.92
 1194       840.14      4172.17
 1195      840.497      4176.33
 1196      840.853      4173.83
 1197      841.209      4167.83
 1198      841.565      4148.75
 1199       841.92      4127.25
 1200      842.276      4119.67
 1201      842.632      4114.42
 1202      842.987         4111
 1203      843.343         4109
 1204      843.698         4103
 1205      844.053      4091.58
 1206      844.408      4082.83
 1207      844.763      4067.17
 1208      845.118      4046.17
 1209      845.472      4040.25
 1210      845.827      4028.75
 1211      846.181      4024.67
 1212      846.536      4030.08
 1213       846.89         4027
 1214      847.244      4030.92
 1215      847.598      4026.58
 1216      847.952      4020.33
 1217      848.306      4019.08
 1218       848.66      4010.75
 1219      849.013      3996.17
 1220      849.367      3988.75
 1221       849.72      3978.92
 1222      850.073      3962.17
 1223      850.427      3953.92
 1224       850.78      3943.83
 1225      851.133      3923.42
 1226      851.485      3903.33
 1227      851.838      3888.83
 1228      852.191       3884.5
 1229      852.543      3895.75
 1230      852.896         3915
 1231      853.248      3918.08
 1232        853.6      3901.42
 1233      853.952      3890.25
 1234      854.304      3884.92
 1235      854.656      3866.67
 1236      855.007      3853.92
 1237      855.359       3860.5
 1238       855.71      3858.92
 1239      856.062      3852.58
 1240      856.413      3840.67
 1241      856.764         3823
 1242      857.115      3807.75
 1243      857.466       3804.5
 1244      857.817      3807.67
 1245      858.168      3815.17
 1246      858.518      3835.42
 1247      858.869      3845.33
 1248      859.219      3839.67
 1249      859.569      3831.83
 1250       859.92         3818
 1251       860.27       3787.5
 1252      860.619      3761.83
 1253      860.969      3753.58
 1254      861.319      3747.25
 1255      861.669         3739
 1256      862.018         3728
 1257      862.367      3718.75
 1258      862.717      3718.42
 1259      863.066      3718.08
 1260      863.415      3716.92
 1261      863.764         3711
 1262      864.112         3699
 1263      864.461      3691.33
 1264       864.81      3688.17
 1265      865.158      3684.08
 1266      865.507      3682.92
 1267      865.855      3676.92
 1268      866.203      3675.42
 1269      866.551      3681.75
 1270      866.899      3682.92
 1271      867.247      3676.33
 1272      867.594      3669.08
 1273      867.942      3665.17
 1274      868.289      3660.17
 1275      868.637      3652.58
 1276      868.984      3646.33
 1277      869.331      3644.92
 1278      869.678      3643.58
 1279      870.025      3647.08
 1280      870.372      3642.42
 1281      870.718      3633.67
 1282      871.065      3628.17
 1283      871.411       3609.5
 1284      871.758      3586.92
 1285      872.104      3576.83
 1286       872.45      3566.25
 1287      872.796      3561.25
 1288      873.142      3568.17
 1289      873.488      3568.75
 1290      873.833      3564.92
 1291      874.179       3566.5
 1292      874.524      3569.67
 1293      874.869      3572.33
 1294      875.215      3577.25
 1295       875.56      3564.42
 1296      875.905      3539.92
 1297       876.25      3520.17
 1298      876.594      3512.25
 1299      876.939      3508.67
 1300      877.283         3500
 1301      877.628      3492.58
 1302      877.972      3492.25
 1303      878.316      3493.25
 1304       878.66      3495.42
 1305      879.004         3493
 1306      879.348      3491.58
 1307      879.692      3498.33
 1308      880.035      3501.33
 1309      880.379      3498.25
 1310      880.722      3494.92
 1311      881.066      3492.83
 1312      881.409      3483.92
 1313      881.752      3471.08
 1314      882.095      3448.92
 1315      882.438      3434.92
 1316       882.78      3437.58
 1317      883.123      3429.42
 1318      883.465      3413.67
 1319      883.808      3416.42
 1320       884.15       3417.5
 1321      884.492      3408.67
 1322      884.834      3397.08
 1323      885.176      3385.92
 1324      885.518      3381.33
 1325      885.859      3380.83
 1326      886.201      3373.67
 1327      886.542       3359.5
 1328      886.884      3351.92
 1329      887.225      3353.42
 1330      887.566      3348.33
 1331      887.907      3349.25
 1332      888.248      3357.08
 1333      888.589         3357
 1334      888.929      3360.08
 1335       889.27      3361.67
 1336       889.61      3359.17
 1337      889.951      3358.33
 1338      890.291       3356.5
 1339      890.631      3357.08
 1340      890.971      3352.75
 1341      891.311      3343.33
 1342       891.65      3339.67
 1343       891.99      3335.67
 1344      892.329      3335.08
 1345      892.669      3340.33
 1346      893.008      3340.92
 1347      893.347       3335.5
 1348      893.686      3333.25
 1349      894.025      3320.83
 1350      894.364      3311.83
 1351      894.703       3306.5
 1352      895.041      3293.58
 1353       895.38      3284.08
 1354      895.718      3275.92
 1355      896.056      3264.58
 1356      896.395         3250
 1357      896.733      3244.92
 1358      897.071      3246.42
 1359      897.408      3232.92
 1360      897.746       3219.5
 1361      898.084      3229.08
 1362      898.421      3239.17
 1363      898.758      3236.42
 1364      899.095      3224.83
 1365      899.433      3222.33
 1366       899.77      3219.67
 1367      900.106      3208.08
 1368      900.443      3195.08
 1369       900.78      3181.33
 1370      901.116      3176.42
 1371      901.453      3173.17
 1372      901.789      3163.83
 1373      902.125      3155.17
 1374      902.461      3154.42
 1375      902.797      3151.25
 1376      903.133      3139.58
 1377      903.469      3129.08
 1378      903.804      3121.17
 1379       904.14         3121
 1380      904.475      3123.58
 1381       904.81      3123.25
 1382      905.146      3108.67
 1383      905.481         3091
 1384      905.815       3091.5
 1385       906.15       3088.5
 1386      906.485      3072.17
 1387      906.819      3058.42
 1388      907.154      3049.58
 1389      907.488      3045.08
 1390      907.822      3052.25
 1391      908.156      3054.75
 1392       908.49      3052.08
 1393      908.824      3042.25
 1394      909.158      3027.33
 1395      909.492      3019.25
 1396      909.825      3006.92
 1397      910.159      2993.08
 1398      910.492      2982.58
 1399      910.825      2969.33
 1400      911.158      2955.17
 1401      911.491      2938.33
 1402      911.824         2926
 1403      912.157       2922.5
 1404      912.489       2921.5
 1405      912.822      2930.08
 1406      913.154      2934.33
 1407      913.486      2925.58
 1408      913.818      2922.83
 1409       914.15      2924.42
 1410      914.482      2909.83
 1411      914.814       2890.5
 1412      915.146      2882.58
 1413      915.477       2872.5
 1414      915.809      2863.17
 1415       916.14      2858.83
 1416      916.471      2855.33
 1417      916.802         2841
 1418      917.133         2822
 1419      917.464      2799.58
 1420      917.795      2786.25
 1421      918.125      2776.42
 1422      918.456      2758.33
 1423      918.786       2750.5
 1424      919.116      2749.42
 1425      919.446      2746.33
 1426      919.776      2745.75
 1427      920.106      2744.67
 1428      920.436      2746.75
 1429      920.766      2756.33
 1430      921.095      2759.08
 1431      921.425      2751.17
 1432      921.754      2745.75
 1433      922.083      2742.67
 1434      922.412      2735.33
 1435      922.741      2724.67
 1436       923.07      2722.33
 1437      923.399      2714.42
 1438      923.727      2695.42
 1439      924.056      2679.92
 1440      924.384      2663.67
 1441      924.713      2653.42
 1442      925.041      2645.08
 1443      925.369      2640.58
 1444      925.697      2637.42
 1445      926.024      2631.83
 1446      926.352       2628.5
 1447       926.68      2623.08
 1448      927.007      2617.42
 1449      927.334      2619.33
 1450      927.662      2622.25
 1451      927.989      2616.25
 1452      928.316      2612.67
 1453      928.643      2612.58
 1454      928.969      2604.42
 1455      929.296      2593.83
 1456      929.622       2585.5
 1457      929.949      2576.92
 1458      930.275      2561.25
 1459      930.601         2551
 1460      930.927      2544.83
 1461      931.253         2537
 1462      931.579      2526.33
 1463      931.905      2511.67
 1464       932.23      2501.67
 1465      932.556      2503.25
 1466      932.881      2506.17
 1467      933.206      2497.75
 1468      933.531         2482
 1469      933.856      2472.08
 1470      934.181       2465.5
 1471      934.506      2450.58
 1472       934.83      2436.75
 1473      935.155      2427.75
 1474      935.479      2423.17
 1475      935.803      2419.58
 1476      936.128      2414.33
 1477      936.452      2406.83
 1478      936.775      2399.42
 1479      937.099      2389.92
 1480      937.423      2373.08
 1481      937.746      2358.83
 1482       938.07      2344.75
 1483      938.393       2334.5
 1484      938.716      2326.17
 1485      939.039      2312.42
 1486      939.362      2306.83
 1487      939.685      2303.17
 1488      940.008      2299.67
 1489      940.331      2301.25
 1490      940.653      2299.92
 1491      940.975      2296.75
 1492      941.298      2297.83
 1493       941.62      2292.42
 1494      941.942       2281.5
 1495      942.264         2273
 1496      942.585      2270.33
 1497      942.907      2263.67
 1498      943.229      2250.25
 1499       943.55       2238.5
 1500      943.871      2226.92
 1501      944.192       2220.5
 1502      944.513      2215.25
 1503      944.834         2200
 1504      945.155      2190.08
 1505      945.476       2183.5
 1506      945.796      2167.92
 1507      946.117      2149.42
 1508      946.437      2116.67
 1509      946.757      2076.83
 1510      947.078      2041.92
 1511      947.398      2017.83
 1512      947.717      2013.08
 1513      948.037      2020.75
 1514      948.357      2027.67
 1515      948.676         2041
 1516      948.996      2052.42
 1517      949.315      2057.42
 1518      949.634         2066
 1519      949.953      2073.25
 1520      950.272      2079.42
 1521      950.591         2080
 1522      950.909      2070.33
 1523      951.228       2067.5
 1524      951.546      2065.67
 1525      951.865      2059.17
 1526      952.183      2046.33
 1527      952.501       2031.5
 1528      952.819      2026.42
 1529      953.137      2024.08
 1530      953.454      2019.17
 1531      953.772      2015.42
 1532      954.089      2009.75
 1533      954.407      1998.75
 1534      954.724      1982.83
 1535      955.041      1972.58
 1536      955.358      1968.67
 1537      955.675      1957.83
 1538      955.992      1946.17
 1539      956.308      1938.92
 1540      956.625      1933.83
 1541      956.941      1925.67
 1542      957.257      1916.17
 1543      957.574      1909.42
 1544       957.89      1902.67
 1545      958.206      1898.17
 1546      958.521      1898.92
 1547      958.837      1890.33
 1548      959.152      1881.17
 1549      959.468      1875.75
 1550      959.783      1870.75
 1551      960.098      1863.33
 1552      960.413      1846.83
 1553      960.728         1836
 1554      961.043      1830.25
 1555      961.358      1822.58
 1556      961.672      1815.67
 1557      961.987       1806.5
 1558      962.301      1798.83
 1559      962.615      1794.75
 1560       962.93       1787.5
 1561      963.244      1784.33
 1562      963.557      1787.42
 1563      963.871      1786.25
 1564      964.185      1785.17
 1565      964.498      1783.58
 1566      964.812      1781.42
 1567      965.125      1776.58
 1568      965.438         1764
 1569      965.751      1751.58
 1570      966.064      1739.25
 1571      966.377      1726.75
 1572      966.689         1720
 1573      967.002      1714.25
 1574      967.314      1706.42
 1575      967.626      1697.17
 1576      967.939      1687.17
 1577      968.251       1678.5
 1578      968.563      1673.25
 1579      968.874      1670.83
 1580      969.186      1662.92
 1581      969.498      1647.08
 1582      969.809         1641
 1583       970.12      1638.67
 1584      970.431      1628.42
 1585      970.743      1619.83
 1586      971.053      1611.75
 1587      971.364      1605.67
 1588      971.675      1602.58
 1589      971.986         1597
 1590      972.296         1588
 1591      972.606      1582.67
 1592      972.917      1579.42
 1593      973.227       1574.5
 1594      973.537      1572.67
 1595      973.847      1567.08
 1596      974.156      1558.92
 1597      974.466      1557.25
 1598      974.775      1553.83
 1599      975.085      1544.58
 1600      975.394      1535.42
 1601      975.703      1527.42
 1602      976.012      1517.83
 1603      976.321      1509.58
 1604       976.63      1503.08
 1605      976.938      1494.67
 1606      977.247      1487.25
 1607      977.555      1478.42
 1608      977.863         1468
 1609      978.172      1462.33
 1610       978.48      1456.75
 1611      978.787         1451
 1612      979.095      1447.83
 1613      979.403      1443.67
 1614       979.71      1438.25
 1615      980.018      1431.17
 1616      980.325      1422.42
 1617      980.632         1418
 1618      980.939      1419.92
 1619      981.246      1418.67
 1620      981.553      1412.33
 1621       981.86         1410
 1622      982.166      1403.67
 1623      982.473       1394.5
 1624      982.779      1389.42
 1625      983.085      1384.58
 1626      983.391      1381.75
 1627      983.697       1381.5
 1628      984.003         1377
 1629      984.309      1370.58
 1630      984.614      1366.58
 1631       984.92         1363
 1632      985.225      1356.92
 1633       985.53      1350.08
 1634      985.835      1346.08
 1635       986.14      1342.33
 1636      986.445      1331.92
 1637       986.75      1318.83
 1638      987.054      1308.08
 1639      987.359      1299.08
 1640      987.663      1291.08
 1641      987.967      1281.67
 1642      988.271      1269.33
 1643      988.575       1257.5
 1644      988.879         1253
 1645      989.183      1248.17
 1646      989.487      1237.92
 1647       989.79      1231.33
 1648      990.093      1227.08
 1649      990.397      1220.75
 1650        990.7      1214.08
 1651      991.003      1207.83
 1652      991.306      1199.42
 1653      991.608      1189.58
 1654      991.911      1182.92
 1655      992.213      1174.83
 1656      992.516      1166.42
 1657      992.818      1161.75
 1658       993.12         1152
 1659      993.422      1141.42
 1660      993.724      1134.08
 1661      994.026      1131.42
 1662      994.327      1126.67
 1663      994.629         1116
 1664       994.93      1108.17
 1665      995.232      1103.17
 1666      995.533      1093.75
 1667      995.834      1084.75
 1668      996.135      1080.58
 1669      996.435      1075.75
 1670      996.736         1066
 1671      997.036      1056.83
 1672      997.337      1050.33
 1673      997.637      1044.33
 1674      997.937      1038.17
 1675      998.237      1030.67
 1676      998.537      1024.08
 1677      998.837      1016.83
 1678      999.137      1007.75
 1679      999.436      999.917
 1680      999.735        994.5
 1681      1000.03      990.333
 1682      1000.33      984.833
 1683      1000.63          977
 1684      1000.93          971
 1685      1001.23      967.917
 1686      1001.53        964.5
 1687      1001.83      959.917
 1688      1002.13       952.75
 1689      1002.42          946
 1690      1002.72      942.833
 1691      1003.02      939.083
 1692      1003.32      932.833
 1693      1003.62      925.833
 1694      1003.91      921.167
 1695      1004.21      921.083
 1696      1004.51      919.167
 1697      1004.81       914.75
 1698       1005.1      910.333
 1699       1005.4      905.167
 1700       1005.7      901.167
 1701      1005.99       901.25
 1702      1006.29      896.083
 1703      1006.59       889.75
 1704      1006.88      886.083
 1705      1007.18       881.25
 1706      1007.48       878.25
 1707      1007.77      875.667
 1708      1008.07      869.167
 1709      1008.36      862.917
 1710      1008.66      860.583
 1711      1008.95      856.333
 1712      1009.25      851.167
 1713      1009.55      846.333
 1714      1009.84      840.333
 1715      1010.14      835.833
 1716      1010.43      831.667
 1717      1010.73          828
 1718      1011.02      825.917
 1719      1011.31      824.083
 1720      1011.61      822.333
 1721       1011.9      822.417
 1722       1012.2       821.25
 1723      1012.49       816.25
 1724      1012.79      811.167
 1725      1013.08          808
 1726      1013.37       805.75
 1727      1013.67      801.333
 1728      1013.96          799
 1729      1014.25          796
 1730      1014.55      791.667
 1731      1014.84        788.5
 1732      1015.13       786.25
 1733      1015.42       784.75
 1734      1015.72       781.25
 1735      1016.01      774.833
 1736       1016.3      771.083
 1737      1016.59      770.667
 1738      1016.89       767.75
 1739      1017.18      765.167
 1740      1017.47          764
 1741      1017.76      761.333
 1742      1018.05      757.333
 1743      1018.35      753.417
 1744      1018.64      749.583
 1745      1018.93       744.75
 1746      1019.22        741.5
 1747      1019.51      739.917
 1748       1019.8          737
 1749      1020.09      735.083
 1750      1020.38      733.333
 1751      1020.67      730.417
 1752      1020.96       729.25
 1753      1021.25      727.667
 1754      1021.54       725.75
 1755      1021.83      722.583
 1756      1022.12      717.167
 1757      1022.41          716
 1758       1022.7      718.333
 1759      1022.99        718.5
 1760      1023.28      715.083
 1761      1023.57      710.833
 1762      1023.86      709.417
 1763      1024.15      709.083
 1764      1024.44        705.5
 1765      1024.73      703.917
 1766      1025.02          706
 1767       1025.3      704.833
 1768      1025.59        703.5
 1769      1025.88      704.167
 1770      1026.17      704.333
 1771      1026.46      704.167
 1772      1026.74      703.083
 1773      1027.03      701.417
 1774      1027.32      699.667
 1775      1027.61      697.333
 1776      1027.89       698.25
 1777      1028.18      697.833
 1778      1028.47      695.667
 1779      1028.76        692.5
 1780      1029.04       690.75
 1781      1029.33      690.417
 1782      1029.62      690.583
 1783       1029.9          691
 1784      1030.19      690.667
 1785      1030.47      690.917
 1786      1030.76      691.917
 1787      1031.05        693.5
 1788      1031.33      692.917
 1789      1031.62      691.333
 1790       1031.9          690
 1791      1032.19      689.333
 1792      1032.47      689.417
 1793      1032.76      689.833
 1794      1033.04      689.167
 1795      1033.33      688.333
 1796      1033.61      687.583
 1797       1033.9      687.417
 1798      1034.18      688.167
 1799      1034.47          689
 1800      1034.75          688
 1801      1035.04      688.167
 1802      1035.32      688.833
 1803       1035.6        688.5
 1804      1035.89      686.833
 1805      1036.17      686.417
 1806      1036.45      687.333
 1807      1036.74      688.333
 1808      1037.02      689.167
 1809       1037.3       688.25
 1810      1037.59      688.667
 1811      1037.87      688.583
 1812      1038.15      687.417
 1813      1038.44      686.917
 1814      1038.72      687.417
 1815         1039      688.083
 1816      1039.28       687.75
 1817      1039.56      687.333
 1818      1039.85      686.333
 1819      1040.13        683.5
 1820      1040.41          683
 1821      1040.69      684.417
 1822      1040.97      685.167
 1823      1041.25       686.25
 1824      1041.54      686.833
 1825      1041.82       686.25
 1826       1042.1      687.083
 1827      1042.38      687.667
 1828      1042.66       687.25
 1829      1042.94      687.417
 1830      1043.22      687.667
 1831       1043.5      688.333
 1832      1043.78      687.917
 1833      1044.06       687.75
 1834      1044.34      687.083
 1835      1044.62      688.083
 1836       1044.9        689.5
 1837      1045.18      689.833
 1838      1045.46          690
 1839      1045.74      688.833
 1840      1046.02          688
 1841       1046.3       686.75
 1842      1046.58        686.5
 1843      1046.85        686.5
 1844      1047.13      687.083
 1845      1047.41        687.5
 1846      1047.69      686.417
 1847      1047.97        684.5
 1848      1048.25      683.167
 1849      1048.52      684.333
 1850       1048.8        685.5
 1851      1049.08          685
 1852      1049.36       686.25
 1853      1049.63      688.167
 1854      1049.91        688.5
 1855      1050.19      687.083
 1856      1050.47      686.417
 1857      1050.74      687.167
 1858      1051.02       686.25
 1859       1051.3      685.583
 1860      1051.57      685.833
 1861      1051.85      685.417
 1862      1052.13      684.667
 1863       1052.4      684.583
 1864      1052.68      685.917
 1865      1052.95        686.5
 1866      1053.23      686.667
 1867      1053.51      686.167
 1868      1053.78      685.583
 1869      1054.06      686.583
 1870      1054.33        686.5
 1871      1054.61      686.583
 1872      1054.88       686.75
 1873      1055.16      685.833
 1874      1055.43      684.917
 1875      1055.71      683.583
 1876      1055.98      683.083
 1877      1056.25      682.333
 1878      1056.53          685
 1879       1056.8      685.917
 1880      1057.08      686.083
 1881      1057.35      685.833
 1882      1057.62      687.333
 1883       1057.9      689.167
 1884      1058.17      687.917
 1885      1058.45       686.75
 1886      1058.72      687.667
 1887      1058.99      688.917
 1888      1059.26      689.667
 1889      1059.54          688
 1890      1059.81        687.5
 1891      1060.08      688.833
 1892      1060.35      688.333
 1893      1060.63      688.167
 1894       1060.9      689.667
 1895      1061.17      691.417
 1896      1061.44       691.25
 1897      1061.71      690.333
 1898      1061.99      690.583
 1899      1062.26      689.667
 1900      1062.53      688.583
 1901       1062.8        687.5
 1902      1063.07       686.75
 1903      1063.34          687
 1904      1063.61      686.583
 1905      1063.88      687.167
 1906      1064.15      687.583
 1907      1064.42      687.083
 1908       1064.7      685.667
 1909      1064.97      684.833
 1910      1065.24      685.667
 1911      1065.51        687.5
 1912      1065.78      687.167
 1913      1066.04      687.667
 1914      1066.31      687.417
 1915      1066.58      686.333
 1916      1066.85      686.667
 1917      1067.12      684.417
 1918      1067.39       682.25
 1919      1067.66      682.333
 1920      1067.93      682.417
 1921       1068.2      684.083
 1922      1068.47       685.25
 1923      1068.73      685.667
 1924         1069      684.583
 1925      1069.27      686.583
 1926      1069.54        688.5
 1927      1069.81        687.5
 1928      1070.07      687.333
 1929      1070.34      687.083
 1930      1070.61          687
 1931      1070.88      687.167
 1932      1071.14       687.25
 1933      1071.41      687.833
 1934      1071.68          688
 1935      1071.94      688.333
 1936      1072.21        686.5
 1937      1072.48        684.5
 1938      1072.74      686.083
 1939      1073.01          687
 1940      1073.28      686.917
 1941      1073.54          686
 1942      1073.81      687.583
 1943      1074.07       686.25
 1944      1074.34        684.5
 1945       1074.6      683.833
 1946      1074.87      683.667
 1947      1075.13       682.25
 1948       1075.4        682.5
 1949      1075.66      685.583
 1950      1075.93       685.25
 1951      1076.19          683
 1952      1076.46      681.167
 1953      1076.72      681.833
 1954      1076.99      683.333
 1955      1077.25       683.25
 1956      1077.52      683.833
 1957      1077.78        684.5
 1958      1078.04      684.083
 1959      1078.31      682.833
 1960      1078.57      684.833
 1961      1078.83          685
 1962       1079.1      685.333
 1963      1079.36      687.417
 1964      1079.62       687.25
 1965      1079.89      684.417
 1966      1080.15      684.167
 1967      1080.41      684.917
 1968      1080.67       686.25
 1969      1080.94      686.417
 1970       1081.2        685.5
 1971      1081.46      684.333
 1972      1081.72       684.25
 1973      1081.98      684.083
 1974      1082.24      682.667
 1975      1082.51      682.917
 1976      1082.77      684.583
 1977      1083.03      683.833
 1978      1083.29      683.583
 1979      1083.55      684.167
 1980      1083.81          685
 1981      1084.07      684.917
 1982      1084.33      684.333
 1983      1084.59      685.167
 1984      1084.85      685.917
 1985      1085.11      687.167
 1986      1085.37      688.583
 1987      1085.63      688.417
 1988      1085.89      686.583
 1989      1086.15       686.75
 1990      1086.41      686.333
 1991      1086.67       685.75
 1992      1086.93      688.667
 1993      1087.19        689.5
 1994      1087.45      688.417
 1995      1087.71      688.333
 1996      1087.97      687.917
 1997      1088.23       687.75
 1998      1088.48      687.833
 1999      1088.74      685.833
 2000         1089      683.917
 2001      1089.26          685
 2002      1089.52        684.5
 2003      1089.77      683.083
 2004      1090.03      683.667
 2005      1090.29      684.167
 2006      1090.55      682.667
 2007       1090.8       682.75
 2008      1091.06      685.083
 2009      1091.32      685.583
 2010      1091.57      686.583
 2011      1091.83       687.25
 2012      1092.09      685.167
 2013      1092.34      683.333
 2014       1092.6      682.417
 2015      1092.86      683.667
 2016      1093.11       685.75
 2017      1093.37       686.25
 2018      1093.62      685.917
 2019      1093.88      685.333
 2020      1094.13        683.5
 2021      1094.39       683.25
 2022      1094.65      683.083
 2023       1094.9      684.667
 2024      1095.16      686.667
 2025      1095.41      685.917
 2026      1095.66      685.583
 2027      1095.92          687
 2028      1096.17      688.917
 2029      1096.43      689.917
 2030      1096.68      689.417
 2031      1096.94      689.083
 2032      1097.19      690.417
 2033      1097.44      689.333
 2034       1097.7        685.5
 2035      1097.95      686.333
 2036       1098.2      686.833
 2037      1098.46      684.583
 2038      1098.71      684.417
 2039      1098.96          683
 2040      1099.22      683.417
 2041      1099.47       684.25
 2042      1099.72       684.25
 2043      1099.97       685.25
 2044      1100.23      684.917
 2045      1100.48      684.083
 2046      1100.73      685.333
 2047      1100.98       688.75
