scansci Spectrometer Data File
--- Measurement Setting ---
Type: Sample Spectrum
Date: Tue Nov 11 11:47:47 2025
User: (Reserved by scansci)
Serial: (Reserved by scansci)
Channel: No. 11
Integration Time: 9
Average: 12
Boxcar: 0
Electrical Dark: No-corrected
Time Normalize: (Reserved by scansci)
Dual-beam: (Reserved by scansci)
Reference Ch: (Reserved by scansci)
--- Measurement Data ---
Pixel   Wavelength   Intensity
    0        344.4        686.5
    1      344.867       686.25
    2      345.334      685.583
    3      345.801      686.417
    4      346.268      687.583
    5      346.735       689.75
    6      347.202       690.25
    7      347.669      688.167
    8      348.135      686.917
    9      348.602      686.583
   10      349.068      685.417
   11      349.535       685.25
   12      350.001      686.167
   13      350.467      685.583
   14      350.933        685.5
   15      351.399        686.5
   16      351.866       687.25
   17      352.331          689
   18      352.797      690.833
   19      353.263      691.417
   20      353.729      692.333
   21      354.194      693.083
   22       354.66      693.583
   23      355.126          692
   24      355.591      689.833
   25      356.056      686.917
   26      356.522      685.417
   27      356.987      684.917
   28      357.452      686.167
   29      357.917          688
   30      358.382      688.167
   31      358.847      689.083
   32      359.312       689.75
   33      359.776      689.417
   34      360.241      688.583
   35      360.706          687
   36       361.17        687.5
   37      361.634        687.5
   38      362.099          687
   39      362.563      687.917
   40      363.027        689.5
   41      363.491      689.833
   42      363.955      688.333
   43      364.419       688.25
   44      364.883      689.667
   45      365.347      688.583
   46      365.811      686.917
   47      366.274      685.583
   48      366.738      685.667
   49      367.201      685.917
   50      367.665      686.333
   51      368.128        687.5
   52      368.592      687.917
   53      369.055      688.667
   54      369.518      688.417
   55      369.981      688.333
   56      370.444      689.667
   57      370.907        692.5
   58       371.37      692.667
   59      371.832      689.917
   60      372.295      687.667
   61      372.757      686.583
   62       373.22      686.333
   63      373.682      688.167
   64      374.145      688.917
   65      374.607      687.083
   66      375.069        686.5
   67      375.531      686.583
   68      375.993      685.917
   69      376.455       686.75
   70      376.917        688.5
   71      377.379       688.75
   72      377.841        689.5
   73      378.302      689.667
   74      378.764        687.5
   75      379.225       687.75
   76      379.687      690.417
   77      380.148        689.5
   78      380.609      687.333
   79      381.071      688.083
   80      381.532      688.917
   81      381.993      688.083
   82      382.454      686.333
   83      382.915      686.083
   84      383.375      685.917
   85      383.836      685.583
   86      384.297        686.5
   87      384.757      687.167
   88      385.218      686.583
   89      385.678      687.417
   90      386.138      688.417
   91      386.599      688.833
   92      387.059       688.75
   93      387.519      686.667
   94      387.979       686.25
   95      388.439      685.833
   96      388.899      682.667
   97      389.358       682.25
   98      389.818       684.25
   99      390.278      683.417
  100      390.737      684.583
  101      391.197      687.167
  102      391.656      688.333
  103      392.115      689.917
  104      392.575        690.5
  105      393.034      688.333
  106      393.493      687.083
  107      393.952          687
  108      394.411      685.917
  109       394.87        685.5
  110      395.328      684.083
  111      395.787      685.667
  112      396.246      688.667
  113      396.704          688
  114      397.163      687.333
  115      397.621       687.75
  116      398.079      686.667
  117      398.537      686.417
  118      398.995          689
  119      399.454      689.083
  120      399.911       689.25
  121      400.369      689.833
  122      400.827      690.833
  123      401.285        690.5
  124      401.743          690
  125        402.2      688.083
  126      402.658      688.333
  127      403.115          688
  128      403.572       686.75
  129       404.03       685.25
  130      404.487      687.083
  131      404.944      689.583
  132      405.401       689.75
  133      405.858      688.417
  134      406.315       690.25
  135      406.771       693.25
  136      407.228      691.833
  137      407.685      687.333
  138      408.141        685.5
  139      408.598      687.167
  140      409.054       688.75
  141       409.51      689.833
  142      409.967      690.583
  143      410.423      689.833
  144      410.879      688.833
  145      411.335      687.333
  146      411.791          688
  147      412.246      688.083
  148      412.702      687.667
  149      413.158      689.333
  150      413.613      692.333
  151      414.069      691.167
  152      414.524      689.583
  153       414.98      691.667
  154      415.435      691.083
  155       415.89      688.833
  156      416.345      690.583
  157        416.8      691.667
  158      417.255        691.5
  159       417.71       690.25
  160      418.165      689.083
  161      418.619      689.667
  162      419.074      690.083
  163      419.529      689.083
  164      419.983        687.5
  165      420.437      687.333
  166      420.892      687.083
  167      421.346      686.417
  168        421.8      686.667
  169      422.254      687.417
  170      422.708      688.417
  171      423.162      689.167
  172      423.616      689.083
  173       424.07      688.667
  174      424.523      687.917
  175      424.977      687.333
  176       425.43       687.75
  177      425.884      687.667
  178      426.337      687.667
  179       426.79      687.417
  180      427.243      686.667
  181      427.697      686.083
  182       428.15      687.167
  183      428.602      688.583
  184      429.055       688.25
  185      429.508      688.083
  186      429.961        687.5
  187      430.413      686.167
  188      430.866       685.75
  189      431.318          687
  190      431.771      687.167
  191      432.223      686.083
  192      432.675          686
  193      433.127       685.75
  194      433.579      686.833
  195      434.031        689.5
  196      434.483      690.417
  197      434.935       691.25
  198      435.387      688.583
  199      435.838      686.583
  200       436.29       687.25
  201      436.741      686.917
  202      437.193      684.083
  203      437.644      681.917
  204      438.095       684.25
  205      438.546      688.667
  206      438.997       688.25
  207      439.448      689.167
  208      439.899       690.75
  209       440.35      690.833
  210      440.801      689.667
  211      441.251       686.75
  212      441.702      686.583
  213      442.152       686.75
  214      442.603       686.75
  215      443.053      686.917
  216      443.503      687.667
  217      443.954      689.167
  218      444.404      690.833
  219      444.854        690.5
  220      445.304          691
  221      445.753       692.25
  222      446.203          693
  223      446.653      694.333
  224      447.102       694.25
  225      447.552      693.083
  226      448.001      689.167
  227      448.451          686
  228        448.9      687.083
  229      449.349      687.417
  230      449.798       687.75
  231      450.247      687.583
  232      450.696          687
  233      451.145      687.083
  234      451.594      687.583
  235      452.042       690.25
  236      452.491      690.917
  237      452.939      689.083
  238      453.388      687.167
  239      453.836        686.5
  240      454.285      686.917
  241      454.733      688.167
  242      455.181      687.833
  243      455.629      687.417
  244      456.077      689.167
  245      456.525      689.667
  246      456.972      688.667
  247       457.42      688.083
  248      457.868       689.25
  249      458.315      688.917
  250      458.763        687.5
  251       459.21      687.583
  252      459.657          687
  253      460.104      686.583
  254      460.552      687.083
  255      460.999      687.333
  256      461.446      688.583
  257      461.892      689.833
  258      462.339      689.083
  259      462.786      688.167
  260      463.233      688.417
  261      463.679       687.75
  262      464.125      686.333
  263      464.572      686.667
  264      465.018      686.917
  265      465.464      687.167
  266       465.91          687
  267      466.356      685.167
  268      466.802          684
  269      467.248       685.25
  270      467.694       687.75
  271       468.14      690.167
  272      468.585      687.917
  273      469.031      688.917
  274      469.476       690.25
  275      469.922        690.5
  276      470.367       690.75
  277      470.812      689.833
  278      471.257      689.417
  279      471.702        689.5
  280      472.147      690.667
  281      472.592        690.5
  282      473.037       689.75
  283      473.482          689
  284      473.926          688
  285      474.371      686.583
  286      474.815          686
  287      475.259      686.833
  288      475.704       688.25
  289      476.148      690.083
  290      476.592        691.5
  291      477.036          693
  292       477.48          694
  293      477.924          693
  294      478.368      692.083
  295      478.811          691
  296      479.255          689
  297      479.698        688.5
  298      480.142      689.083
  299      480.585       690.75
  300      481.028       691.25
  301      481.472      689.333
  302      481.915      689.417
  303      482.358       691.25
  304      482.801       691.25
  305      483.244      690.167
  306      483.686      691.083
  307      484.129      691.917
  308      484.572      692.083
  309      485.014       693.75
  310      485.456      694.333
  311      485.899          694
  312      486.341      694.083
  313      486.783      693.417
  314      487.225      693.333
  315      487.667      694.083
  316      488.109      693.417
  317      488.551      693.833
  318      488.993      693.667
  319      489.434      691.833
  320      489.876      692.167
  321      490.318       693.25
  322      490.759      694.083
  323        491.2      695.167
  324      491.641       696.25
  325      492.083      696.917
  326      492.524      697.917
  327      492.965      698.167
  328      493.406          697
  329      493.846      695.917
  330      494.287      696.917
  331      494.728      697.167
  332      495.168        697.5
  333      495.609      698.833
  334      496.049       699.75
  335      496.489       698.25
  336       496.93      698.833
  337       497.37      702.833
  338       497.81      706.167
  339       498.25          710
  340       498.69      711.833
  341      499.129      712.083
  342      499.569      712.417
  343      500.009      713.167
  344      500.448      714.333
  345      500.888        716.5
  346      501.327      717.333
  347      501.766       718.75
  348      502.206       719.75
  349      502.645          719
  350      503.084      721.333
  351      503.523      723.833
  352      503.961        724.5
  353        504.4      724.167
  354      504.839        725.5
  355      505.277       728.75
  356      505.716      730.083
  357      506.154          730
  358      506.593      731.917
  359      507.031      732.833
  360      507.469          733
  361      507.907      733.833
  362      508.345       738.25
  363      508.783       742.25
  364      509.221      742.917
  365      509.659      742.583
  366      510.096      744.083
  367      510.534        748.5
  368      510.971      752.167
  369      511.409      755.667
  370      511.846       759.75
  371      512.283      761.833
  372       512.72      762.667
  373      513.157      764.667
  374      513.594      765.667
  375      514.031      766.167
  376      514.468      768.333
  377      514.905      771.167
  378      515.341          773
  379      515.778      773.417
  380      516.214      776.083
  381       516.65       776.75
  382      517.087      777.333
  383      517.523      781.917
  384      517.959       786.25
  385      518.395      789.583
  386      518.831      790.417
  387      519.267      791.667
  388      519.702      794.667
  389      520.138      798.083
  390      520.574       798.75
  391      521.009      800.333
  392      521.444      804.583
  393       521.88      807.167
  394      522.315       808.25
  395       522.75        812.5
  396      523.185      816.583
  397       523.62          818
  398      524.055      821.917
  399       524.49       828.25
  400      524.924      830.833
  401      525.359      831.167
  402      525.794          833
  403      526.228      837.583
  404      526.662      842.083
  405      527.097      844.083
  406      527.531      847.917
  407      527.965       853.75
  408      528.399      859.083
  409      528.833       862.75
  410      529.267          864
  411        529.7       864.25
  412      530.134      865.417
  413      530.568      869.583
  414      531.001      874.417
  415      531.434      877.917
  416      531.868      880.917
  417      532.301       885.25
  418      532.734      890.417
  419      533.167      897.167
  420        533.6       902.75
  421      534.033      906.167
  422      534.466      906.833
  423      534.898       910.25
  424      535.331      916.583
  425      535.763      921.167
  426      536.196      926.583
  427      536.628      928.833
  428       537.06      933.833
  429      537.493      938.583
  430      537.925      943.167
  431      538.357      946.417
  432      538.788      950.833
  433       539.22       955.75
  434      539.652      960.083
  435      540.084          965
  436      540.515      968.333
  437      540.947      969.167
  438      541.378      971.333
  439      541.809      978.167
  440       542.24      986.917
  441      542.672      990.417
  442      543.103        994.5
  443      543.533      997.167
  444      543.964      1000.83
  445      544.395      1007.75
  446      544.826      1012.67
  447      545.256      1018.25
  448      545.687      1023.08
  449      546.117      1026.42
  450      546.547      1031.92
  451      546.978      1036.67
  452      547.408      1041.83
  453      547.838      1046.25
  454      548.268      1052.17
  455      548.698         1060
  456      549.127      1066.25
  457      549.557      1069.08
  458      549.987      1072.25
  459      550.416      1074.42
  460      550.846      1077.83
  461      551.275      1084.17
  462      551.704      1087.92
  463      552.133      1091.92
  464      552.562      1096.83
  465      552.991      1106.17
  466       553.42      1115.75
  467      553.849      1119.25
  468      554.278      1124.25
  469      554.706      1129.17
  470      555.135      1133.17
  471      555.563       1137.5
  472      555.991      1144.08
  473       556.42      1150.67
  474      556.848      1154.58
  475      557.276       1161.5
  476      557.704         1169
  477      558.132      1175.33
  478       558.56      1183.42
  479      558.987      1189.92
  480      559.415      1194.08
  481      559.843         1200
  482       560.27       1208.5
  483      560.697      1216.67
  484      561.125      1224.25
  485      561.552      1227.83
  486      561.979       1229.5
  487      562.406      1235.17
  488      562.833      1245.08
  489       563.26         1252
  490      563.686      1256.58
  491      564.113      1262.25
  492       564.54       1271.5
  493      564.966      1281.25
  494      565.392      1286.58
  495      565.819         1294
  496      566.245      1303.08
  497      566.671      1312.67
  498      567.097         1322
  499      567.523      1330.17
  500      567.949      1339.25
  501      568.374      1348.75
  502        568.8      1358.33
  503      569.226      1368.17
  504      569.651      1377.58
  505      570.077       1383.5
  506      570.502      1390.33
  507      570.927      1397.42
  508      571.352      1407.08
  509      571.777      1415.67
  510      572.202         1423
  511      572.627      1429.17
  512      573.052      1435.17
  513      573.476      1444.75
  514      573.901      1457.67
  515      574.325      1471.67
  516       574.75      1481.67
  517      575.174      1489.92
  518      575.598      1501.33
  519      576.022      1508.67
  520      576.446      1515.58
  521       576.87      1526.83
  522      577.294      1535.08
  523      577.718       1542.5
  524      578.142         1555
  525      578.565      1567.08
  526      578.989      1576.42
  527      579.412      1587.67
  528      579.835      1597.25
  529      580.259         1608
  530      580.682         1622
  531      581.105      1638.08
  532      581.528      1654.75
  533      581.951         1661
  534      582.373      1670.33
  535      582.796      1681.75
  536      583.219      1688.33
  537      583.641      1697.83
  538      584.063      1708.75
  539      584.486      1722.83
  540      584.908      1739.83
  541       585.33      1753.08
  542      585.752      1763.67
  543      586.174      1776.33
  544      586.596      1785.33
  545      587.018      1801.75
  546      587.439      1821.33
  547      587.861      1830.75
  548      588.282      1845.17
  549      588.704      1861.75
  550      589.125         1878
  551      589.546      1890.75
  552      589.967      1903.17
  553      590.388      1915.67
  554      590.809      1928.58
  555       591.23      1944.58
  556      591.651      1962.75
  557      592.071      1984.33
  558      592.492      2000.92
  559      592.912      2015.83
  560      593.333      2034.25
  561      593.753      2049.33
  562      594.173         2063
  563      594.593      2071.92
  564      595.013      2083.83
  565      595.433      2097.08
  566      595.853      2109.33
  567      596.273      2118.83
  568      596.693      2126.83
  569      597.112      2139.08
  570      597.532      2150.58
  571      597.951      2159.25
  572       598.37      2173.58
  573      598.789       2183.5
  574      599.208       2188.5
  575      599.627      2200.83
  576      600.046      2214.75
  577      600.465      2223.25
  578      600.884      2226.75
  579      601.303      2231.58
  580      601.721      2236.67
  581      602.139      2245.42
  582      602.558      2258.25
  583      602.976      2269.17
  584      603.394      2280.25
  585      603.812      2281.92
  586       604.23      2277.58
  587      604.648      2285.25
  588      605.066      2305.25
  589      605.484      2320.67
  590      605.901      2328.17
  591      606.319      2335.92
  592      606.736      2343.67
  593      607.154       2353.5
  594      607.571      2361.92
  595      607.988      2369.08
  596      608.405      2381.08
  597      608.822      2392.42
  598      609.239      2404.75
  599      609.656      2413.92
  600      610.072      2427.33
  601      610.489      2439.33
  602      610.905      2443.92
  603      611.322      2455.75
  604      611.738      2466.42
  605      612.154      2475.33
  606       612.57      2488.25
  607      612.986      2493.33
  608      613.402      2505.67
  609      613.818      2525.17
  610      614.234      2538.25
  611       614.65      2544.75
  612      615.065      2552.75
  613      615.481      2563.67
  614      615.896         2577
  615      616.311      2583.17
  616      616.727      2595.92
  617      617.142      2614.08
  618      617.557      2621.67
  619      617.972      2633.42
  620      618.386       2647.5
  621      618.801      2657.33
  622      619.216      2667.25
  623       619.63      2680.75
  624      620.045      2683.67
  625      620.459      2682.08
  626      620.873       2693.5
  627      621.287      2714.92
  628      621.702      2734.67
  629      622.116       2744.5
  630      622.529      2743.25
  631      622.943      2747.17
  632      623.357      2762.67
  633      623.771      2783.33
  634      624.184      2797.17
  635      624.597      2808.67
  636      625.011      2820.92
  637      625.424      2828.17
  638      625.837         2850
  639       626.25      2868.67
  640      626.663      2877.42
  641      627.076      2890.42
  642      627.489       2901.5
  643      627.901         2911
  644      628.314      2918.33
  645      628.726      2931.33
  646      629.139      2944.25
  647      629.551      2952.67
  648      629.963      2971.33
  649      630.375      2982.58
  650      630.787      2989.33
  651      631.199       3002.5
  652      631.611         3015
  653      632.023         3030
  654      632.434      3042.08
  655      632.846         3055
  656      633.257      3074.17
  657      633.669      3101.67
  658       634.08       3121.5
  659      634.491      3125.75
  660      634.902       3132.5
  661      635.313      3135.33
  662      635.724       3139.5
  663      636.135         3162
  664      636.545      3183.67
  665      636.956       3193.5
  666      637.366         3201
  667      637.777       3213.5
  668      638.187      3219.75
  669      638.597      3226.08
  670      639.007      3242.25
  671      639.417      3247.33
  672      639.827      3250.08
  673      640.237      3263.58
  674      640.647      3278.42
  675      641.056         3286
  676      641.466         3295
  677      641.875      3307.08
  678      642.285      3325.17
  679      642.694      3347.83
  680      643.103      3362.08
  681      643.512      3375.75
  682      643.921      3392.75
  683       644.33      3410.67
  684      644.739      3414.33
  685      645.148      3414.58
  686      645.556      3422.33
  687      645.965      3434.83
  688      646.373       3450.5
  689      646.781      3463.08
  690      647.189      3479.67
  691      647.598      3498.33
  692      648.006         3512
  693      648.414       3517.5
  694      648.821      3520.33
  695      649.229      3526.25
  696      649.637      3518.33
  697      650.044      3509.17
  698      650.452         3516
  699      650.859      3531.33
  700      651.266       3525.5
  701      651.673      3521.75
  702       652.08      3538.17
  703      652.487      3565.67
  704      652.894      3597.58
  705      653.301      3621.25
  706      653.708      3633.17
  707      654.114      3646.67
  708      654.521       3666.5
  709      654.927      3678.83
  710      655.333      3694.75
  711       655.74      3701.08
  712      656.146      3685.75
  713      656.552      3681.25
  714      656.958      3696.25
  715      657.363      3712.67
  716      657.769      3719.25
  717      658.175      3730.17
  718       658.58      3755.67
  719      658.986      3774.25
  720      659.391      3778.83
  721      659.796      3783.58
  722      660.201      3795.92
  723      660.606      3815.83
  724      661.011      3833.25
  725      661.416      3849.83
  726      661.821      3858.83
  727      662.225      3861.58
  728       662.63      3869.33
  729      663.034       3873.5
  730      663.439      3886.58
  731      663.843      3900.33
  732      664.247      3899.83
  733      664.651       3900.5
  734      665.055      3917.25
  735      665.459      3938.25
  736      665.863      3953.42
  737      666.267      3969.17
  738       666.67      3981.17
  739      667.074      3984.75
  740      667.477      3986.67
  741       667.88      3986.92
  742      668.283      3990.17
  743      668.687      4003.83
  744       669.09      4009.25
  745      669.492      4019.92
  746      669.895      4032.08
  747      670.298      4042.33
  748      670.701      4062.25
  749      671.103      4084.42
  750      671.505      4112.08
  751      671.908      4114.25
  752       672.31      4117.83
  753      672.712      4145.75
  754      673.114      4154.83
  755      673.516      4163.83
  756      673.918      4176.92
  757       674.32      4189.08
  758      674.721       4206.5
  759      675.123         4209
  760      675.524       4209.5
  761      675.926      4207.17
  762      676.327      4215.67
  763      676.728      4241.75
  764      677.129      4252.25
  765       677.53       4274.5
  766      677.931      4298.17
  767      678.332      4306.17
  768      678.732      4315.92
  769      679.133      4321.58
  770      679.533      4333.83
  771      679.934      4338.42
  772      680.334      4340.67
  773      680.734      4361.75
  774      681.134      4368.17
  775      681.534      4372.08
  776      681.934         4390
  777      682.334      4401.83
  778      682.733      4427.92
  779      683.133      4452.25
  780      683.532       4461.5
  781      683.932      4463.67
  782      684.331      4451.17
  783       684.73      4440.92
  784      685.129         4445
  785      685.528      4447.92
  786      685.927      4438.33
  787      686.326      4433.17
  788      686.725      4440.33
  789      687.123      4447.33
  790      687.522         4463
  791       687.92      4497.33
  792      688.319      4527.58
  793      688.717      4551.75
  794      689.115       4573.5
  795      689.513      4581.75
  796      689.911         4578
  797      690.309      4581.83
  798      690.706      4596.67
  799      691.104         4619
  800      691.501      4636.42
  801      691.899      4632.67
  802      692.296      4629.67
  803      692.693      4642.67
  804       693.09       4658.5
  805      693.488      4682.58
  806      693.884         4713
  807      694.281      4707.92
  808      694.678      4704.17
  809      695.075      4730.42
  810      695.471      4748.25
  811      695.868      4762.25
  812      696.264      4776.58
  813       696.66      4786.92
  814      697.056      4798.17
  815      697.452      4802.08
  816      697.848      4810.67
  817      698.244      4821.67
  818       698.64      4825.08
  819      699.035      4825.67
  820      699.431         4825
  821      699.826      4827.17
  822      700.222      4842.67
  823      700.617      4858.75
  824      701.012      4856.33
  825      701.407      4862.42
  826      701.802      4886.25
  827      702.197      4916.67
  828      702.592      4916.83
  829      702.986      4907.17
  830      703.381       4916.5
  831      703.775         4918
  832       704.17      4915.67
  833      704.564      4907.25
  834      704.958         4906
  835      705.352         4918
  836      705.746         4919
  837       706.14      4921.92
  838      706.533      4930.83
  839      706.927      4930.17
  840      707.321      4930.17
  841      707.714      4942.42
  842      708.107         4951
  843      708.501         4947
  844      708.894      4939.67
  845      709.287      4929.08
  846       709.68      4921.58
  847      710.073      4915.17
  848      710.465      4906.17
  849      710.858      4914.08
  850      711.251      4939.58
  851      711.643      4957.92
  852      712.035         4971
  853      712.428      4983.75
  854       712.82      4993.17
  855      713.212      4993.08
  856      713.604      4983.33
  857      713.995      4985.75
  858      714.387      4990.58
  859      714.779      4977.17
  860       715.17         4970
  861      715.562      4977.08
  862      715.953      4989.58
  863      716.344      4977.92
  864      716.735      4952.42
  865      717.127         4951
  866      717.517      4955.33
  867      717.908      4952.58
  868      718.299      4942.08
  869       718.69      4929.25
  870       719.08      4899.42
  871      719.471      4858.33
  872      719.861      4849.67
  873      720.251      4850.33
  874      720.641      4842.58
  875      721.031      4859.58
  876      721.421      4882.83
  877      721.811      4883.67
  878      722.201      4895.42
  879       722.59         4907
  880       722.98      4903.08
  881      723.369      4900.08
  882      723.759      4897.25
  883      724.148       4889.5
  884      724.537         4885
  885      724.926      4892.67
  886      725.315       4903.5
  887      725.704      4900.25
  888      726.092      4873.17
  889      726.481      4854.42
  890       726.87      4848.67
  891      727.258      4841.33
  892      727.646      4841.25
  893      728.034      4838.92
  894      728.423      4842.42
  895      728.811      4859.83
  896      729.198      4874.08
  897      729.586         4868
  898      729.974      4852.92
  899      730.362       4846.5
  900      730.749      4852.75
  901      731.136      4865.58
  902      731.524      4857.58
  903      731.911      4863.42
  904      732.298         4869
  905      732.685      4852.42
  906      733.072       4842.5
  907      733.459      4839.92
  908      733.845         4838
  909      734.232      4832.25
  910      734.618      4833.25
  911      735.005         4834
  912      735.391      4839.17
  913      735.777      4841.58
  914      736.163      4847.17
  915      736.549      4852.58
  916      736.935      4849.92
  917      737.321      4852.42
  918      737.706       4853.5
  919      738.092      4855.58
  920      738.477      4867.83
  921      738.863         4888
  922      739.248      4893.25
  923      739.633      4888.75
  924      740.018      4896.42
  925      740.403      4905.42
  926      740.788      4904.67
  927      741.173      4896.17
  928      741.557      4897.33
  929      741.942      4903.25
  930      742.326      4893.58
  931      742.711      4891.17
  932      743.095         4903
  933      743.479      4907.58
  934      743.863      4904.92
  935      744.247         4905
  936      744.631         4913
  937      745.015      4917.67
  938      745.398         4915
  939      745.782      4924.58
  940      746.165      4953.75
  941      746.548      4965.75
  942      746.932      4951.42
  943      747.315      4932.92
  944      747.698      4914.25
  945      748.081      4896.83
  946      748.463      4892.67
  947      748.846      4891.67
  948      749.229         4909
  949      749.611      4928.58
  950      749.993         4934
  951      750.376      4941.08
  952      750.758      4964.08
  953       751.14      4965.67
  954      751.522      4950.83
  955      751.904      4963.33
  956      752.285      4968.67
  957      752.667      4979.83
  958      753.049      4993.58
  959       753.43      4998.33
  960      753.811      5000.42
  961      754.193      4978.25
  962      754.574      4959.67
  963      754.955      4963.17
  964      755.336      4973.33
  965      755.717      4984.42
  966      756.097      4984.83
  967      756.478      4985.08
  968      756.858      4985.83
  969      757.239      4981.58
  970      757.619      4987.33
  971      757.999      4986.75
  972      758.379       4976.5
  973      758.759      4966.25
  974      759.139      4957.25
  975      759.519      4942.58
  976      759.899      4918.33
  977      760.278         4917
  978      760.658      4927.42
  979      761.037      4931.42
  980      761.417      4927.58
  981      761.796      4923.08
  982      762.175      4923.75
  983      762.554       4934.5
  984      762.933      4948.42
  985      763.311      4946.42
  986       763.69      4946.17
  987      764.068      4957.75
  988      764.447      4961.17
  989      764.825      4960.25
  990      765.203         4977
  991      765.582      4991.83
  992       765.96      4982.92
  993      766.338         4972
  994      766.715      4981.92
  995      767.093      5001.92
  996      767.471      4995.25
  997      767.848      4997.58
  998      768.226      5029.17
  999      768.603      5046.83
 1000       768.98      5058.08
 1001      769.357      5065.42
 1002      769.734      5076.67
 1003      770.111      5082.58
 1004      770.488      5064.83
 1005      770.864      5057.33
 1006      771.241      5055.75
 1007      771.617      5036.08
 1008      771.994      5017.92
 1009       772.37      5003.75
 1010      772.746      4998.42
 1011      773.122      5015.33
 1012      773.498      5019.67
 1013      773.874      5007.67
 1014       774.25      5015.58
 1015      774.625      5021.42
 1016      775.001         5013
 1017      775.376      5014.17
 1018      775.751         5010
 1019      776.127       5007.5
 1020      776.502      5017.75
 1021      776.877      5023.58
 1022      777.252      5027.33
 1023      777.626      5031.17
 1024      778.001      5045.92
 1025      778.375      5064.92
 1026       778.75      5073.33
 1027      779.124      5075.17
 1028      779.499      5078.83
 1029      779.873         5068
 1030      780.247      5057.58
 1031      780.621      5058.08
 1032      780.994      5058.42
 1033      781.368      5076.25
 1034      781.742      5088.83
 1035      782.115      5094.58
 1036      782.489       5107.5
 1037      782.862      5125.58
 1038      783.235      5133.58
 1039      783.608      5128.58
 1040      783.981      5111.58
 1041      784.354       5104.5
 1042      784.727      5101.08
 1043        785.1       5083.5
 1044      785.472      5071.58
 1045      785.845      5069.75
 1046      786.217      5060.25
 1047      786.589      5047.92
 1048      786.961      5044.17
 1049      787.333      5033.75
 1050      787.705      5030.92
 1051      788.077      5025.67
 1052      788.449      5012.75
 1053       788.82      5015.75
 1054      789.192      5038.67
 1055      789.563      5052.08
 1056      789.934         5047
 1057      790.306      5047.17
 1058      790.677      5049.67
 1059      791.048      5043.67
 1060      791.419      5026.83
 1061      791.789      5011.08
 1062       792.16      4996.67
 1063       792.53      4991.67
 1064      792.901      5004.33
 1065      793.271      5023.75
 1066      793.641         5025
 1067      794.012      4994.17
 1068      794.382         4969
 1069      794.751      4964.83
 1070      795.121      4955.58
 1071      795.491      4945.83
 1072      795.861      4940.58
 1073       796.23      4939.92
 1074      796.599      4946.33
 1075      796.969      4957.75
 1076      797.338      4967.92
 1077      797.707      4971.67
 1078      798.076      4968.92
 1079      798.445      4962.67
 1080      798.813         4945
 1081      799.182      4907.58
 1082       799.55       4881.5
 1083      799.919      4874.58
 1084      800.287      4872.67
 1085      800.655       4883.5
 1086      801.023      4910.83
 1087      801.391      4933.33
 1088      801.759       4935.5
 1089      802.127      4931.75
 1090      802.495      4930.25
 1091      802.862       4920.5
 1092       803.23      4914.67
 1093      803.597      4920.33
 1094      803.964         4925
 1095      804.331      4913.17
 1096      804.698      4905.33
 1097      805.065      4897.92
 1098      805.432      4880.08
 1099      805.799      4874.25
 1100      806.165       4876.5
 1101      806.532      4869.42
 1102      806.898      4854.75
 1103      807.264      4834.83
 1104      807.631      4809.67
 1105      807.997       4797.5
 1106      808.363      4802.75
 1107      808.728       4816.5
 1108      809.094      4827.25
 1109       809.46      4821.75
 1110      809.825       4819.5
 1111      810.191      4812.92
 1112      810.556      4802.67
 1113      810.921      4806.92
 1114      811.286      4805.42
 1115      811.651      4798.08
 1116      812.016      4786.17
 1117      812.381       4767.5
 1118      812.745      4753.75
 1119       813.11      4751.08
 1120      813.474      4741.83
 1121      813.839      4725.42
 1122      814.203      4705.08
 1123      814.567      4688.83
 1124      814.931      4665.25
 1125      815.295      4644.17
 1126      815.659      4655.67
 1127      816.022      4656.33
 1128      816.386      4628.75
 1129      816.749      4607.08
 1130      817.113      4596.42
 1131      817.476       4602.5
 1132      817.839      4614.42
 1133      818.202      4630.17
 1134      818.565      4641.83
 1135      818.928       4628.5
 1136      819.291      4609.58
 1137      819.653      4598.92
 1138      820.016      4587.58
 1139      820.378      4582.83
 1140       820.74      4576.25
 1141      821.102      4573.25
 1142      821.464      4571.83
 1143      821.826      4561.75
 1144      822.188      4554.25
 1145       822.55      4533.33
 1146      822.912         4517
 1147      823.273      4525.33
 1148      823.634      4522.33
 1149      823.996      4504.83
 1150      824.357      4487.08
 1151      824.718      4462.58
 1152      825.079      4449.83
 1153       825.44      4446.67
 1154      825.801      4432.67
 1155      826.161      4423.33
 1156      826.522      4419.75
 1157      826.882      4419.33
 1158      827.242      4417.17
 1159      827.603      4415.33
 1160      827.963      4424.67
 1161      828.323      4436.83
 1162      828.682       4453.5
 1163      829.042      4443.42
 1164      829.402      4424.67
 1165      829.761      4415.33
 1166      830.121      4394.75
 1167       830.48      4378.58
 1168      830.839      4360.92
 1169      831.198       4337.5
 1170      831.557      4325.25
 1171      831.916      4314.08
 1172      832.275      4295.33
 1173      832.634      4269.92
 1174      832.992      4246.92
 1175      833.351      4221.33
 1176      833.709      4205.67
 1177      834.067      4205.75
 1178      834.425      4194.17
 1179      834.783      4185.17
 1180      835.141      4181.92
 1181      835.499      4176.75
 1182      835.857      4179.33
 1183      836.214      4178.33
 1184      836.572      4179.58
 1185      836.929      4189.08
 1186      837.286      4189.58
 1187      837.644       4195.5
 1188      838.001      4188.33
 1189      838.357      4175.58
 1190      838.714       4164.5
 1191      839.071      4134.58
 1192      839.428      4109.08
 1193      839.784      4099.92
 1194       840.14      4096.33
 1195      840.497      4087.83
 1196      840.853         4076
 1197      841.209      4055.42
 1198      841.565      4039.83
 1199       841.92      4036.83
 1200      842.276      4040.67
 1201      842.632      4051.17
 1202      842.987      4061.83
 1203      843.343      4075.25
 1204      843.698      4075.25
 1205      844.053      4062.92
 1206      844.408      4069.25
 1207      844.763      4073.25
 1208      845.118      4059.33
 1209      845.472      4047.58
 1210      845.827       4039.5
 1211      846.181      4044.08
 1212      846.536      4047.17
 1213       846.89      4039.42
 1214      847.244       4039.5
 1215      847.598      4033.17
 1216      847.952      4025.92
 1217      848.306      4012.33
 1218       848.66       3993.5
 1219      849.013      3984.08
 1220      849.367      3972.25
 1221       849.72      3956.75
 1222      850.073      3947.67
 1223      850.427         3948
 1224       850.78      3947.42
 1225      851.133      3945.58
 1226      851.485      3945.25
 1227      851.838      3943.42
 1228      852.191      3941.08
 1229      852.543      3950.67
 1230      852.896      3960.83
 1231      853.248      3950.33
 1232        853.6       3933.5
 1233      853.952      3925.58
 1234      854.304      3926.08
 1235      854.656      3911.67
 1236      855.007      3891.25
 1237      855.359      3887.67
 1238       855.71      3881.33
 1239      856.062      3871.08
 1240      856.413      3858.58
 1241      856.764      3838.17
 1242      857.115      3813.33
 1243      857.466      3799.58
 1244      857.817      3793.75
 1245      858.168      3787.42
 1246      858.518      3790.17
 1247      858.869      3787.92
 1248      859.219      3774.42
 1249      859.569      3761.42
 1250       859.92      3756.25
 1251       860.27      3747.33
 1252      860.619      3742.58
 1253      860.969         3760
 1254      861.319      3780.92
 1255      861.669      3786.83
 1256      862.018      3785.25
 1257      862.367      3783.83
 1258      862.717      3778.75
 1259      863.066      3773.17
 1260      863.415      3765.67
 1261      863.764      3746.25
 1262      864.112      3724.42
 1263      864.461      3715.17
 1264       864.81      3711.83
 1265      865.158      3708.42
 1266      865.507      3701.83
 1267      865.855      3698.17
 1268      866.203      3701.58
 1269      866.551      3709.92
 1270      866.899      3716.33
 1271      867.247       3713.5
 1272      867.594         3701
 1273      867.942      3688.08
 1274      868.289      3678.17
 1275      868.637      3666.25
 1276      868.984      3664.17
 1277      869.331      3669.92
 1278      869.678         3677
 1279      870.025       3683.5
 1280      870.372       3678.5
 1281      870.718      3672.33
 1282      871.065      3670.17
 1283      871.411      3660.17
 1284      871.758       3641.5
 1285      872.104         3620
 1286       872.45       3602.5
 1287      872.796      3604.17
 1288      873.142      3615.92
 1289      873.488      3618.92
 1290      873.833      3607.08
 1291      874.179         3598
 1292      874.524      3601.17
 1293      874.869      3601.25
 1294      875.215      3600.83
 1295       875.56      3596.08
 1296      875.905      3585.25
 1297       876.25         3578
 1298      876.594      3576.33
 1299      876.939      3575.42
 1300      877.283         3562
 1301      877.628      3540.42
 1302      877.972      3521.75
 1303      878.316      3502.08
 1304       878.66      3481.25
 1305      879.004         3461
 1306      879.348      3452.58
 1307      879.692      3444.17
 1308      880.035      3435.75
 1309      880.379      3429.83
 1310      880.722      3426.08
 1311      881.066      3430.67
 1312      881.409      3431.58
 1313      881.752      3425.58
 1314      882.095      3412.83
 1315      882.438      3402.42
 1316       882.78      3405.75
 1317      883.123      3411.25
 1318      883.465      3403.42
 1319      883.808      3405.08
 1320       884.15      3420.83
 1321      884.492      3426.08
 1322      884.834      3421.75
 1323      885.176      3417.67
 1324      885.518         3423
 1325      885.859      3431.75
 1326      886.201      3427.33
 1327      886.542      3421.08
 1328      886.884      3421.42
 1329      887.225      3421.25
 1330      887.566         3418
 1331      887.907      3423.58
 1332      888.248      3420.25
 1333      888.589      3410.17
 1334      888.929      3411.92
 1335       889.27      3399.58
 1336       889.61      3377.25
 1337      889.951      3363.25
 1338      890.291       3348.5
 1339      890.631       3341.5
 1340      890.971       3334.5
 1341      891.311      3320.08
 1342       891.65      3309.75
 1343       891.99      3296.83
 1344      892.329      3293.42
 1345      892.669      3293.92
 1346      893.008      3289.83
 1347      893.347      3284.92
 1348      893.686      3279.33
 1349      894.025      3268.25
 1350      894.364      3258.08
 1351      894.703      3250.25
 1352      895.041       3248.5
 1353       895.38      3257.67
 1354      895.718         3260
 1355      896.056      3255.08
 1356      896.395      3238.58
 1357      896.733      3223.17
 1358      897.071      3217.92
 1359      897.408      3195.17
 1360      897.746      3176.83
 1361      898.084      3187.92
 1362      898.421      3194.33
 1363      898.758      3183.75
 1364      899.095      3172.67
 1365      899.433      3170.67
 1366       899.77      3170.83
 1367      900.106      3161.75
 1368      900.443      3156.67
 1369       900.78      3161.58
 1370      901.116      3165.75
 1371      901.453      3157.58
 1372      901.789       3151.5
 1373      902.125      3149.58
 1374      902.461      3145.58
 1375      902.797      3138.83
 1376      903.133         3133
 1377      903.469      3129.75
 1378      903.804      3125.33
 1379       904.14      3128.25
 1380      904.475      3125.92
 1381       904.81       3125.5
 1382      905.146         3119
 1383      905.481      3107.08
 1384      905.815      3100.33
 1385       906.15      3087.25
 1386      906.485      3069.42
 1387      906.819      3054.33
 1388      907.154      3039.17
 1389      907.488      3030.67
 1390      907.822      3031.08
 1391      908.156      3026.83
 1392       908.49      3028.75
 1393      908.824      3018.33
 1394      909.158      3007.17
 1395      909.492      3002.83
 1396      909.825      2993.42
 1397      910.159      2990.42
 1398      910.492      2991.67
 1399      910.825       2987.5
 1400      911.158      2982.08
 1401      911.491      2980.75
 1402      911.824      2974.75
 1403      912.157      2965.67
 1404      912.489      2957.33
 1405      912.822      2955.75
 1406      913.154      2945.83
 1407      913.486      2932.25
 1408      913.818      2929.83
 1409       914.15      2926.83
 1410      914.482      2909.33
 1411      914.814      2890.67
 1412      915.146      2878.92
 1413      915.477      2864.25
 1414      915.809      2855.92
 1415       916.14      2852.25
 1416      916.471      2846.67
 1417      916.802      2831.17
 1418      917.133      2825.42
 1419      917.464         2823
 1420      917.795      2810.67
 1421      918.125      2802.58
 1422      918.456      2795.75
 1423      918.786      2792.83
 1424      919.116      2788.67
 1425      919.446       2780.5
 1426      919.776      2772.67
 1427      920.106      2765.75
 1428      920.436      2761.08
 1429      920.766      2763.67
 1430      921.095      2768.83
 1431      921.425      2768.58
 1432      921.754      2768.17
 1433      922.083      2771.08
 1434      922.412      2768.42
 1435      922.741      2765.08
 1436       923.07      2764.17
 1437      923.399      2750.33
 1438      923.727      2732.33
 1439      924.056      2717.08
 1440      924.384      2704.25
 1441      924.713      2691.83
 1442      925.041      2677.17
 1443      925.369         2673
 1444      925.697      2665.83
 1445      926.024      2656.92
 1446      926.352      2654.75
 1447       926.68      2645.08
 1448      927.007       2631.5
 1449      927.334      2618.42
 1450      927.662       2606.5
 1451      927.989         2595
 1452      928.316      2589.17
 1453      928.643      2587.75
 1454      928.969      2581.58
 1455      929.296       2574.5
 1456      929.622      2567.67
 1457      929.949      2557.42
 1458      930.275      2547.42
 1459      930.601      2545.42
 1460      930.927      2542.75
 1461      931.253      2532.67
 1462      931.579      2521.92
 1463      931.905      2504.25
 1464       932.23      2486.92
 1465      932.556      2478.08
 1466      932.881      2469.75
 1467      933.206         2455
 1468      933.531      2438.75
 1469      933.856      2429.58
 1470      934.181      2427.08
 1471      934.506      2423.25
 1472       934.83       2419.5
 1473      935.155         2414
 1474      935.479         2410
 1475      935.803      2410.08
 1476      936.128      2407.58
 1477      936.452      2401.33
 1478      936.775      2397.83
 1479      937.099      2392.58
 1480      937.423      2379.42
 1481      937.746      2368.33
 1482       938.07      2359.33
 1483      938.393      2349.58
 1484      938.716      2343.92
 1485      939.039      2333.25
 1486      939.362      2324.75
 1487      939.685      2319.33
 1488      940.008      2310.33
 1489      940.331       2306.5
 1490      940.653      2304.58
 1491      940.975      2296.42
 1492      941.298      2285.33
 1493       941.62      2272.58
 1494      941.942      2262.58
 1495      942.264         2255
 1496      942.585      2250.42
 1497      942.907      2245.33
 1498      943.229      2235.92
 1499       943.55      2226.33
 1500      943.871      2212.33
 1501      944.192      2207.92
 1502      944.513      2206.17
 1503      944.834      2198.08
 1504      945.155      2196.42
 1505      945.476      2195.58
 1506      945.796      2187.92
 1507      946.117       2169.5
 1508      946.437      2140.17
 1509      946.757      2108.67
 1510      947.078      2078.67
 1511      947.398      2052.58
 1512      947.717      2043.75
 1513      948.037      2045.67
 1514      948.357       2050.5
 1515      948.676      2061.58
 1516      948.996         2070
 1517      949.315      2073.42
 1518      949.634      2082.33
 1519      949.953      2088.25
 1520      950.272      2088.58
 1521      950.591         2086
 1522      950.909      2080.58
 1523      951.228      2075.08
 1524      951.546      2061.08
 1525      951.865      2048.92
 1526      952.183       2040.5
 1527      952.501      2030.83
 1528      952.819      2030.25
 1529      953.137      2025.17
 1530      953.454      2019.58
 1531      953.772      2020.25
 1532      954.089      2017.67
 1533      954.407      2009.83
 1534      954.724      1998.83
 1535      955.041      1989.92
 1536      955.358      1977.25
 1537      955.675      1962.58
 1538      955.992      1949.33
 1539      956.308       1939.5
 1540      956.625      1933.58
 1541      956.941      1927.67
 1542      957.257       1917.5
 1543      957.574      1909.08
 1544       957.89      1905.67
 1545      958.206       1896.5
 1546      958.521      1892.17
 1547      958.837      1888.67
 1548      959.152      1882.58
 1549      959.468      1877.92
 1550      959.783      1872.17
 1551      960.098      1861.67
 1552      960.413      1850.42
 1553      960.728       1839.5
 1554      961.043      1828.75
 1555      961.358      1822.33
 1556      961.672      1809.17
 1557      961.987      1796.92
 1558      962.301      1787.25
 1559      962.615         1777
 1560       962.93       1766.5
 1561      963.244      1758.42
 1562      963.557      1755.83
 1563      963.871         1752
 1564      964.185      1747.83
 1565      964.498      1745.42
 1566      964.812       1743.5
 1567      965.125      1739.33
 1568      965.438      1733.92
 1569      965.751         1730
 1570      966.064      1722.67
 1571      966.377      1718.67
 1572      966.689      1720.58
 1573      967.002      1717.67
 1574      967.314      1711.33
 1575      967.626      1700.67
 1576      967.939         1686
 1577      968.251      1677.33
 1578      968.563      1672.42
 1579      968.874         1668
 1580      969.186      1661.67
 1581      969.498      1649.92
 1582      969.809      1639.17
 1583       970.12       1633.5
 1584      970.431       1625.5
 1585      970.743       1620.5
 1586      971.053         1613
 1587      971.364         1609
 1588      971.675      1608.08
 1589      971.986      1599.75
 1590      972.296      1591.92
 1591      972.606      1587.42
 1592      972.917      1585.33
 1593      973.227      1582.25
 1594      973.537         1577
 1595      973.847      1569.75
 1596      974.156      1564.42
 1597      974.466      1562.08
 1598      974.775      1559.17
 1599      975.085      1556.67
 1600      975.394      1552.58
 1601      975.703      1547.17
 1602      976.012      1540.42
 1603      976.321      1534.75
 1604       976.63      1532.58
 1605      976.938      1525.33
 1606      977.247      1515.25
 1607      977.555         1507
 1608      977.863      1498.33
 1609      978.172      1494.17
 1610       978.48      1492.42
 1611      978.787      1484.83
 1612      979.095      1476.25
 1613      979.403       1466.5
 1614       979.71      1460.08
 1615      980.018         1457
 1616      980.325      1446.92
 1617      980.632      1436.67
 1618      980.939      1430.92
 1619      981.246      1426.17
 1620      981.553      1423.67
 1621       981.86       1422.5
 1622      982.166      1418.25
 1623      982.473      1413.58
 1624      982.779      1411.92
 1625      983.085      1405.83
 1626      983.391      1404.33
 1627      983.697         1406
 1628      984.003       1400.5
 1629      984.309      1388.17
 1630      984.614      1375.33
 1631       984.92      1366.58
 1632      985.225      1359.42
 1633       985.53      1352.25
 1634      985.835         1347
 1635       986.14      1340.83
 1636      986.445      1332.92
 1637       986.75      1321.58
 1638      987.054      1309.42
 1639      987.359       1298.5
 1640      987.663         1292
 1641      987.967      1287.42
 1642      988.271      1276.08
 1643      988.575      1265.67
 1644      988.879      1257.58
 1645      989.183      1248.75
 1646      989.487      1241.58
 1647       989.79      1233.92
 1648      990.093      1225.33
 1649      990.397       1215.5
 1650        990.7      1205.08
 1651      991.003         1200
 1652      991.306      1193.75
 1653      991.608         1182
 1654      991.911      1173.75
 1655      992.213      1165.08
 1656      992.516      1155.08
 1657      992.818      1149.92
 1658       993.12      1143.33
 1659      993.422      1136.58
 1660      993.724       1132.5
 1661      994.026      1123.58
 1662      994.327      1112.42
 1663      994.629      1107.17
 1664       994.93         1106
 1665      995.232      1103.25
 1666      995.533      1098.92
 1667      995.834      1089.08
 1668      996.135      1082.08
 1669      996.435      1079.67
 1670      996.736      1072.42
 1671      997.036      1063.67
 1672      997.337      1056.92
 1673      997.637      1051.25
 1674      997.937       1043.5
 1675      998.237         1035
 1676      998.537      1028.83
 1677      998.837         1026
 1678      999.137      1023.33
 1679      999.436      1018.33
 1680      999.735      1013.42
 1681      1000.03      1008.25
 1682      1000.33      999.917
 1683      1000.63      992.583
 1684      1000.93       985.75
 1685      1001.23      978.333
 1686      1001.53      970.667
 1687      1001.83      963.583
 1688      1002.13          959
 1689      1002.42      955.333
 1690      1002.72      950.833
 1691      1003.02      944.667
 1692      1003.32      938.167
 1693      1003.62      932.333
 1694      1003.91      931.167
 1695      1004.21      929.917
 1696      1004.51      925.833
 1697      1004.81      920.583
 1698       1005.1      915.667
 1699       1005.4      911.917
 1700       1005.7      907.917
 1701      1005.99      902.917
 1702      1006.29       898.25
 1703      1006.59      893.583
 1704      1006.88       888.75
 1705      1007.18      885.917
 1706      1007.48      882.917
 1707      1007.77      877.583
 1708      1008.07      870.167
 1709      1008.36      864.833
 1710      1008.66      862.417
 1711      1008.95      860.583
 1712      1009.25       858.75
 1713      1009.55      853.417
 1714      1009.84      849.167
 1715      1010.14      842.583
 1716      1010.43      835.167
 1717      1010.73       833.25
 1718      1011.02      831.917
 1719      1011.31          826
 1720      1011.61      824.167
 1721       1011.9      822.583
 1722       1012.2      819.833
 1723      1012.49       817.75
 1724      1012.79        816.5
 1725      1013.08      814.083
 1726      1013.37      810.667
 1727      1013.67      805.417
 1728      1013.96      799.917
 1729      1014.25      797.917
 1730      1014.55      796.833
 1731      1014.84      795.333
 1732      1015.13          791
 1733      1015.42          785
 1734      1015.72       779.75
 1735      1016.01      775.667
 1736       1016.3       774.25
 1737      1016.59      774.833
 1738      1016.89       773.25
 1739      1017.18      769.833
 1740      1017.47      765.417
 1741      1017.76        760.5
 1742      1018.05       757.75
 1743      1018.35      755.167
 1744      1018.64      751.833
 1745      1018.93        746.5
 1746      1019.22      744.083
 1747      1019.51      742.917
 1748       1019.8       739.75
 1749      1020.09      736.333
 1750      1020.38      733.667
 1751      1020.67      730.667
 1752      1020.96        728.5
 1753      1021.25       726.75
 1754      1021.54       724.75
 1755      1021.83      722.333
 1756      1022.12       723.75
 1757      1022.41      724.417
 1758       1022.7          723
 1759      1022.99      722.583
 1760      1023.28      721.583
 1761      1023.57       719.25
 1762      1023.86      715.833
 1763      1024.15      713.333
 1764      1024.44      713.083
 1765      1024.73        712.5
 1766      1025.02      709.167
 1767       1025.3      706.833
 1768      1025.59       706.75
 1769      1025.88       705.75
 1770      1026.17       703.25
 1771      1026.46      701.167
 1772      1026.74      701.333
 1773      1027.03      703.083
 1774      1027.32          702
 1775      1027.61          700
 1776      1027.89      700.083
 1777      1028.18        700.5
 1778      1028.47      699.083
 1779      1028.76        697.5
 1780      1029.04          698
 1781      1029.33      697.917
 1782      1029.62      696.833
 1783       1029.9        695.5
 1784      1030.19      695.833
 1785      1030.47      696.667
 1786      1030.76          695
 1787      1031.05      692.167
 1788      1031.33          691
 1789      1031.62      691.583
 1790       1031.9      692.833
 1791      1032.19        691.5
 1792      1032.47      689.167
 1793      1032.76      685.833
 1794      1033.04      686.583
 1795      1033.33       689.25
 1796      1033.61       689.25
 1797       1033.9      686.667
 1798      1034.18      685.167
 1799      1034.47      686.833
 1800      1034.75      687.583
 1801      1035.04      686.333
 1802      1035.32       685.75
 1803       1035.6      686.667
 1804      1035.89       687.75
 1805      1036.17      687.167
 1806      1036.45       686.75
 1807      1036.74      689.833
 1808      1037.02        689.5
 1809       1037.3      687.333
 1810      1037.59       688.25
 1811      1037.87      690.083
 1812      1038.15          689
 1813      1038.44      688.167
 1814      1038.72       687.75
 1815         1039      686.083
 1816      1039.28      686.917
 1817      1039.56      686.833
 1818      1039.85      684.583
 1819      1040.13       684.75
 1820      1040.41      686.167
 1821      1040.69       686.75
 1822      1040.97        688.5
 1823      1041.25      688.583
 1824      1041.54      689.333
 1825      1041.82      688.583
 1826       1042.1      687.083
 1827      1042.38      688.833
 1828      1042.66      689.917
 1829      1042.94        688.5
 1830      1043.22      686.917
 1831       1043.5      684.833
 1832      1043.78      684.583
 1833      1044.06      687.333
 1834      1044.34      689.417
 1835      1044.62      689.417
 1836       1044.9          689
 1837      1045.18      687.417
 1838      1045.46      686.833
 1839      1045.74       686.25
 1840      1046.02      685.417
 1841       1046.3      685.917
 1842      1046.58      688.583
 1843      1046.85        690.5
 1844      1047.13      689.583
 1845      1047.41      686.917
 1846      1047.69          686
 1847      1047.97      687.333
 1848      1048.25      686.167
 1849      1048.52          686
 1850       1048.8       687.25
 1851      1049.08       686.75
 1852      1049.36       684.75
 1853      1049.63      684.333
 1854      1049.91       685.75
 1855      1050.19      687.667
 1856      1050.47      687.667
 1857      1050.74          686
 1858      1051.02      687.333
 1859       1051.3       687.25
 1860      1051.57      687.667
 1861      1051.85          688
 1862      1052.13       686.25
 1863       1052.4       684.75
 1864      1052.68      682.917
 1865      1052.95      684.083
 1866      1053.23      686.667
 1867      1053.51      687.667
 1868      1053.78       687.75
 1869      1054.06       687.75
 1870      1054.33      688.333
 1871      1054.61      689.917
 1872      1054.88      690.583
 1873      1055.16       688.75
 1874      1055.43       688.25
 1875      1055.71      686.167
 1876      1055.98      685.083
 1877      1056.25      686.917
 1878      1056.53      688.167
 1879       1056.8       686.25
 1880      1057.08      684.833
 1881      1057.35       684.25
 1882      1057.62          684
 1883       1057.9      682.833
 1884      1058.17       684.25
 1885      1058.45      686.917
 1886      1058.72      688.167
 1887      1058.99      686.333
 1888      1059.26      685.833
 1889      1059.54      686.333
 1890      1059.81      686.667
 1891      1060.08          688
 1892      1060.35        687.5
 1893      1060.63      687.667
 1894       1060.9       690.25
 1895      1061.17      691.083
 1896      1061.44       690.25
 1897      1061.71      687.583
 1898      1061.99       687.25
 1899      1062.26       685.25
 1900      1062.53          685
 1901       1062.8          684
 1902      1063.07      683.583
 1903      1063.34      684.917
 1904      1063.61       685.75
 1905      1063.88      688.583
 1906      1064.15       691.25
 1907      1064.42        691.5
 1908       1064.7          691
 1909      1064.97      690.667
 1910      1065.24          689
 1911      1065.51      686.833
 1912      1065.78          685
 1913      1066.04      685.167
 1914      1066.31          686
 1915      1066.58      685.833
 1916      1066.85      685.667
 1917      1067.12        684.5
 1918      1067.39      682.333
 1919      1067.66      682.417
 1920      1067.93        685.5
 1921       1068.2      687.417
 1922      1068.47      686.667
 1923      1068.73        685.5
 1924         1069        686.5
 1925      1069.27        688.5
 1926      1069.54       688.25
 1927      1069.81      686.917
 1928      1070.07          687
 1929      1070.34      686.917
 1930      1070.61      686.333
 1931      1070.88        686.5
 1932      1071.14      686.833
 1933      1071.41      686.417
 1934      1071.68      684.917
 1935      1071.94      684.583
 1936      1072.21      685.583
 1937      1072.48      686.333
 1938      1072.74       687.75
 1939      1073.01      687.583
 1940      1073.28      689.167
 1941      1073.54      690.583
 1942      1073.81      689.167
 1943      1074.07       688.25
 1944      1074.34       688.25
 1945       1074.6        687.5
 1946      1074.87        686.5
 1947      1075.13      685.583
 1948       1075.4      686.833
 1949      1075.66      689.083
 1950      1075.93      689.083
 1951      1076.19       687.75
 1952      1076.46        687.5
 1953      1076.72      686.583
 1954      1076.99      685.333
 1955      1077.25      685.583
 1956      1077.52        685.5
 1957      1077.78      686.333
 1958      1078.04      686.917
 1959      1078.31      686.917
 1960      1078.57      686.333
 1961      1078.83      687.167
 1962       1079.1          687
 1963      1079.36      687.917
 1964      1079.62      688.417
 1965      1079.89      689.083
 1966      1080.15      688.833
 1967      1080.41      688.417
 1968      1080.67      689.167
 1969      1080.94      688.833
 1970       1081.2      687.417
 1971      1081.46      686.583
 1972      1081.72      687.833
 1973      1081.98      688.583
 1974      1082.24      687.917
 1975      1082.51      687.917
 1976      1082.77          688
 1977      1083.03      686.583
 1978      1083.29        685.5
 1979      1083.55          684
 1980      1083.81      686.083
 1981      1084.07          687
 1982      1084.33      684.583
 1983      1084.59      682.583
 1984      1084.85      682.333
 1985      1085.11       682.75
 1986      1085.37          684
 1987      1085.63      685.333
 1988      1085.89      685.833
 1989      1086.15      684.667
 1990      1086.41       685.25
 1991      1086.67      685.667
 1992      1086.93       685.25
 1993      1087.19      684.583
 1994      1087.45       685.25
 1995      1087.71      684.917
 1996      1087.97          685
 1997      1088.23      684.917
 1998      1088.48      683.917
 1999      1088.74      684.417
 2000         1089      685.333
 2001      1089.26      685.833
 2002      1089.52       686.25
 2003      1089.77        686.5
 2004      1090.03      686.083
 2005      1090.29      685.167
 2006      1090.55      684.917
 2007       1090.8      685.417
 2008      1091.06      684.917
 2009      1091.32      683.417
 2010      1091.57          684
 2011      1091.83      686.083
 2012      1092.09        687.5
 2013      1092.34      687.167
 2014       1092.6      687.083
 2015      1092.86      685.583
 2016      1093.11      683.417
 2017      1093.37      682.583
 2018      1093.62      683.167
 2019      1093.88      683.917
 2020      1094.13      684.917
 2021      1094.39      685.583
 2022      1094.65      685.417
 2023       1094.9          685
 2024      1095.16      684.833
 2025      1095.41       684.25
 2026      1095.66      683.833
 2027      1095.92       684.25
 2028      1096.17       684.75
 2029      1096.43       683.75
 2030      1096.68      684.667
 2031      1096.94      685.583
 2032      1097.19      684.917
 2033      1097.44          684
 2034       1097.7      686.167
 2035      1097.95      688.417
 2036       1098.2      688.667
 2037      1098.46          686
 2038      1098.71      684.833
 2039      1098.96          685
 2040      1099.22      684.833
 2041      1099.47      682.667
 2042      1099.72      682.333
 2043      1099.97        683.5
 2044      1100.23      684.333
 2045      1100.48      684.167
 2046      1100.73      685.833
 2047      1100.98      692.417
