scansci Spectrometer Data File
--- Measurement Setting ---
Type: Sample Spectrum
Date: Tue Nov 11 11:49:35 2025
User: (Reserved by scansci)
Serial: (Reserved by scansci)
Channel: No. 11
Integration Time: 9
Average: 12
Boxcar: 0
Electrical Dark: No-corrected
Time Normalize: (Reserved by scansci)
Dual-beam: (Reserved by scansci)
Reference Ch: (Reserved by scansci)
--- Measurement Data ---
Pixel   Wavelength   Intensity
    0        344.4       680.75
    1      344.867      681.667
    2      345.334      682.167
    3      345.801      682.167
    4      346.268      681.917
    5      346.735      681.333
    6      347.202      682.833
    7      347.669      681.583
    8      348.135       680.25
    9      348.602      681.333
   10      349.068      681.333
   11      349.535        681.5
   12      350.001      681.667
   13      350.467      682.583
   14      350.933        683.5
   15      351.399          682
   16      351.866      682.333
   17      352.331      682.917
   18      352.797      682.667
   19      353.263      682.083
   20      353.729      682.083
   21      354.194      681.917
   22       354.66      681.417
   23      355.126      681.333
   24      355.591      682.583
   25      356.056      684.333
   26      356.522      685.667
   27      356.987      686.917
   28      357.452       687.25
   29      357.917      684.417
   30      358.382      682.167
   31      358.847      683.833
   32      359.312      684.083
   33      359.776        685.5
   34      360.241      684.667
   35      360.706        681.5
   36       361.17          681
   37      361.634      680.917
   38      362.099          683
   39      362.563       684.25
   40      363.027      685.167
   41      363.491      685.167
   42      363.955      684.833
   43      364.419      685.667
   44      364.883       684.75
   45      365.347      683.333
   46      365.811      681.083
   47      366.274          679
   48      366.738      679.833
   49      367.201      680.167
   50      367.665      681.417
   51      368.128      682.417
   52      368.592          682
   53      369.055          682
   54      369.518          682
   55      369.981      682.583
   56      370.444      682.833
   57      370.907          682
   58       371.37      682.417
   59      371.832      682.417
   60      372.295      682.333
   61      372.757      683.917
   62       373.22      683.917
   63      373.682      683.833
   64      374.145      685.167
   65      374.607      687.167
   66      375.069      687.917
   67      375.531      686.333
   68      375.993      687.167
   69      376.455       685.75
   70      376.917      683.333
   71      377.379      683.417
   72      377.841       684.75
   73      378.302      683.083
   74      378.764       682.75
   75      379.225      683.667
   76      379.687      683.083
   77      380.148      683.333
   78      380.609        683.5
   79      381.071      683.167
   80      381.532       684.75
   81      381.993       685.25
   82      382.454        683.5
   83      382.915          683
   84      383.375       683.25
   85      383.836        681.5
   86      384.297      682.583
   87      384.757      684.667
   88      385.218      684.333
   89      385.678      683.417
   90      386.138      682.583
   91      386.599        682.5
   92      387.059       683.25
   93      387.519      683.583
   94      387.979        682.5
   95      388.439      684.167
   96      388.899      685.167
   97      389.358      686.083
   98      389.818      685.917
   99      390.278      684.333
  100      390.737      686.083
  101      391.197      685.917
  102      391.656      685.667
  103      392.115      686.583
  104      392.575      687.167
  105      393.034       685.75
  106      393.493       684.75
  107      393.952      685.167
  108      394.411      687.417
  109       394.87      686.083
  110      395.328          683
  111      395.787      682.833
  112      396.246      683.583
  113      396.704      685.167
  114      397.163       684.25
  115      397.621      682.167
  116      398.079       682.25
  117      398.537      683.083
  118      398.995      682.583
  119      399.454       680.75
  120      399.911      679.167
  121      400.369      679.083
  122      400.827      678.583
  123      401.285      678.917
  124      401.743      679.917
  125        402.2      681.417
  126      402.658      681.583
  127      403.115       681.25
  128      403.572      682.417
  129       404.03        684.5
  130      404.487       684.75
  131      404.944          684
  132      405.401       684.25
  133      405.858      682.583
  134      406.315      682.333
  135      406.771        685.5
  136      407.228       686.75
  137      407.685      686.167
  138      408.141       685.25
  139      408.598      684.167
  140      409.054       682.75
  141       409.51       681.25
  142      409.967      680.333
  143      410.423      681.917
  144      410.879      682.833
  145      411.335       683.75
  146      411.791      683.833
  147      412.246       684.25
  148      412.702      684.167
  149      413.158          681
  150      413.613      680.667
  151      414.069      682.083
  152      414.524        683.5
  153       414.98      683.917
  154      415.435      683.583
  155       415.89      682.583
  156      416.345      682.167
  157        416.8        684.5
  158      417.255      685.333
  159       417.71      684.333
  160      418.165      686.667
  161      418.619      684.583
  162      419.074      684.083
  163      419.529          686
  164      419.983       686.25
  165      420.437      686.083
  166      420.892      686.917
  167      421.346        686.5
  168        421.8      684.667
  169      422.254      684.833
  170      422.708      686.083
  171      423.162      685.083
  172      423.616      685.167
  173       424.07       685.75
  174      424.523      684.333
  175      424.977      685.167
  176       425.43      685.833
  177      425.884        683.5
  178      426.337      683.167
  179       426.79      685.833
  180      427.243          685
  181      427.697       683.25
  182       428.15      682.833
  183      428.602          684
  184      429.055      683.333
  185      429.508      682.333
  186      429.961       682.75
  187      430.413      682.917
  188      430.866      682.833
  189      431.318      681.583
  190      431.771       681.75
  191      432.223      684.417
  192      432.675      686.833
  193      433.127      687.333
  194      433.579      688.333
  195      434.031      687.583
  196      434.483      687.333
  197      434.935      686.833
  198      435.387      686.917
  199      435.838        686.5
  200       436.29      684.583
  201      436.741       683.75
  202      437.193      683.417
  203      437.644      682.333
  204      438.095      680.917
  205      438.546      679.917
  206      438.997       678.75
  207      439.448      679.167
  208      439.899      683.417
  209       440.35      685.917
  210      440.801      684.333
  211      441.251       681.75
  212      441.702      681.667
  213      442.152      683.333
  214      442.603      683.917
  215      443.053      684.833
  216      443.503      683.167
  217      443.954      681.417
  218      444.404      682.083
  219      444.854      682.833
  220      445.304        682.5
  221      445.753          683
  222      446.203        684.5
  223      446.653       685.25
  224      447.102      683.083
  225      447.552      683.667
  226      448.001      684.667
  227      448.451      681.917
  228        448.9        680.5
  229      449.349       683.25
  230      449.798      685.083
  231      450.247      685.417
  232      450.696      685.083
  233      451.145      684.667
  234      451.594      685.167
  235      452.042      685.667
  236      452.491      685.917
  237      452.939       686.25
  238      453.388      685.583
  239      453.836      685.167
  240      454.285          685
  241      454.733      684.833
  242      455.181      684.167
  243      455.629      683.083
  244      456.077        684.5
  245      456.525      687.167
  246      456.972      686.333
  247       457.42       685.75
  248      457.868      686.667
  249      458.315       685.25
  250      458.763      683.167
  251       459.21      683.583
  252      459.657      683.917
  253      460.104      682.667
  254      460.552      681.083
  255      460.999      681.833
  256      461.446          683
  257      461.892      684.917
  258      462.339      686.417
  259      462.786        686.5
  260      463.233      684.833
  261      463.679      685.583
  262      464.125       685.25
  263      464.572       684.25
  264      465.018      684.667
  265      465.464      684.917
  266       465.91        683.5
  267      466.356      681.583
  268      466.802      680.167
  269      467.248      679.917
  270      467.694      680.333
  271       468.14      681.083
  272      468.585        682.5
  273      469.031      685.167
  274      469.476          685
  275      469.922       684.25
  276      470.367      686.667
  277      470.812       687.25
  278      471.257      688.083
  279      471.702          688
  280      472.147        687.5
  281      472.592      685.917
  282      473.037      682.417
  283      473.482      682.667
  284      473.926      685.917
  285      474.371          687
  286      474.815          687
  287      475.259      688.417
  288      475.704      687.583
  289      476.148          685
  290      476.592      683.833
  291      477.036          685
  292       477.48      684.417
  293      477.924       683.25
  294      478.368          683
  295      478.811      684.167
  296      479.255      684.167
  297      479.698        682.5
  298      480.142      681.667
  299      480.585      682.833
  300      481.028        682.5
  301      481.472        682.5
  302      481.915      683.833
  303      482.358      685.917
  304      482.801      684.167
  305      483.244       681.75
  306      483.686          682
  307      484.129      683.083
  308      484.572        685.5
  309      485.014      686.333
  310      485.456      683.667
  311      485.899       682.25
  312      486.341        682.5
  313      486.783      683.083
  314      487.225      682.917
  315      487.667       683.75
  316      488.109      686.333
  317      488.551      688.667
  318      488.993        688.5
  319      489.434      687.167
  320      489.876       685.25
  321      490.318      685.083
  322      490.759          685
  323        491.2      686.417
  324      491.641      688.833
  325      492.083      688.667
  326      492.524      687.167
  327      492.965      687.667
  328      493.406      688.667
  329      493.846          688
  330      494.287      688.167
  331      494.728      688.917
  332      495.168       687.75
  333      495.609      687.333
  334      496.049      686.167
  335      496.489      687.083
  336       496.93      687.917
  337       497.37      688.083
  338       497.81          691
  339       498.25      692.167
  340       498.69        691.5
  341      499.129      691.417
  342      499.569        693.5
  343      500.009          695
  344      500.448      695.833
  345      500.888      694.583
  346      501.327      693.167
  347      501.766          693
  348      502.206      693.167
  349      502.645      695.333
  350      503.084      697.083
  351      503.523       698.25
  352      503.961      697.667
  353        504.4      697.833
  354      504.839        698.5
  355      505.277      700.333
  356      505.716          700
  357      506.154      699.167
  358      506.593        699.5
  359      507.031      698.083
  360      507.469      697.167
  361      507.907      699.167
  362      508.345      701.583
  363      508.783      703.583
  364      509.221      704.167
  365      509.659      703.917
  366      510.096      704.583
  367      510.534          707
  368      510.971      706.083
  369      511.409      705.833
  370      511.846      708.167
  371      512.283      707.833
  372       512.72          708
  373      513.157        709.5
  374      513.594      710.833
  375      514.031       710.75
  376      514.468      709.917
  377      514.905      712.083
  378      515.341       713.75
  379      515.778      713.083
  380      516.214       713.25
  381       516.65      713.333
  382      517.087      714.833
  383      517.523      718.333
  384      517.959      719.583
  385      518.395        717.5
  386      518.831      718.167
  387      519.267        720.5
  388      519.702      721.583
  389      520.138      724.083
  390      520.574        727.5
  391      521.009          726
  392      521.444       722.75
  393       521.88      721.333
  394      522.315      724.417
  395       522.75      727.417
  396      523.185      729.583
  397       523.62          732
  398      524.055      734.667
  399       524.49       735.25
  400      524.924       733.75
  401      525.359      734.417
  402      525.794       734.75
  403      526.228      733.833
  404      526.662      733.917
  405      527.097      736.583
  406      527.531       739.25
  407      527.965      742.333
  408      528.399          743
  409      528.833      742.667
  410      529.267      744.417
  411        529.7      746.667
  412      530.134      748.583
  413      530.568      749.417
  414      531.001          752
  415      531.434        754.5
  416      531.868      754.083
  417      532.301      753.917
  418      532.734      757.583
  419      533.167       761.25
  420        533.6        761.5
  421      534.033       764.75
  422      534.466      767.833
  423      534.898      767.667
  424      535.331      770.083
  425      535.763      773.667
  426      536.196      773.583
  427      536.628      773.167
  428       537.06      774.333
  429      537.493      775.083
  430      537.925       777.25
  431      538.357          779
  432      538.788       780.75
  433       539.22       782.75
  434      539.652      784.167
  435      540.084      786.583
  436      540.515      788.167
  437      540.947      788.417
  438      541.378      788.333
  439      541.809      791.083
  440       542.24      794.417
  441      542.672        795.5
  442      543.103      797.083
  443      543.533      799.833
  444      543.964       803.75
  445      544.395      806.833
  446      544.826      805.583
  447      545.256      806.167
  448      545.687          808
  449      546.117      810.333
  450      546.547      810.667
  451      546.978      813.167
  452      547.408      816.333
  453      547.838      817.917
  454      548.268      821.083
  455      548.698       822.75
  456      549.127      822.167
  457      549.557      823.833
  458      549.987      828.167
  459      550.416          832
  460      550.846       832.25
  461      551.275      832.583
  462      551.704      834.417
  463      552.133      833.833
  464      552.562       833.25
  465      552.991      836.333
  466       553.42       839.25
  467      553.849      843.417
  468      554.278      847.583
  469      554.706      849.667
  470      555.135       850.75
  471      555.563      855.583
  472      555.991       858.75
  473       556.42      859.083
  474      556.848       861.25
  475      557.276      864.417
  476      557.704      868.167
  477      558.132          869
  478       558.56      867.833
  479      558.987      869.667
  480      559.415       875.25
  481      559.843       877.75
  482       560.27      881.917
  483      560.697       887.75
  484      561.125      889.583
  485      561.552       889.75
  486      561.979      890.583
  487      562.406      892.167
  488      562.833          895
  489       563.26      897.333
  490      563.686      900.583
  491      564.113          905
  492       564.54      908.583
  493      564.966      911.917
  494      565.392          915
  495      565.819      918.833
  496      566.245      922.417
  497      566.671        925.5
  498      567.097       930.25
  499      567.523      933.167
  500      567.949      933.333
  501      568.374      935.083
  502        568.8      937.833
  503      569.226          942
  504      569.651      946.083
  505      570.077      950.333
  506      570.502      955.083
  507      570.927      959.167
  508      571.352      964.167
  509      571.777      968.417
  510      572.202      971.417
  511      572.627      972.833
  512      573.052      975.583
  513      573.476      979.333
  514      573.901      981.417
  515      574.325      984.583
  516       574.75      987.583
  517      575.174      990.917
  518      575.598       994.75
  519      576.022      996.667
  520      576.446          997
  521       576.87      1000.42
  522      577.294      1004.42
  523      577.718      1008.92
  524      578.142         1015
  525      578.565         1019
  526      578.989      1021.33
  527      579.412      1028.25
  528      579.835         1034
  529      580.259      1037.17
  530      580.682       1043.5
  531      581.105      1050.58
  532      581.528      1055.83
  533      581.951      1060.08
  534      582.373      1065.83
  535      582.796      1071.58
  536      583.219      1077.08
  537      583.641      1083.67
  538      584.063      1089.25
  539      584.486      1092.58
  540      584.908      1097.75
  541       585.33      1102.08
  542      585.752      1104.33
  543      586.174      1111.92
  544      586.596      1116.42
  545      587.018      1120.42
  546      587.439      1125.83
  547      587.861      1129.25
  548      588.282         1136
  549      588.704      1142.67
  550      589.125      1146.67
  551      589.546      1150.67
  552      589.967      1155.42
  553      590.388      1162.83
  554      590.809         1172
  555       591.23      1176.58
  556      591.651      1182.67
  557      592.071       1189.5
  558      592.492      1194.67
  559      592.912      1205.92
  560      593.333      1217.33
  561      593.753         1223
  562      594.173      1226.17
  563      594.593       1230.5
  564      595.013      1237.17
  565      595.433       1240.5
  566      595.853      1243.08
  567      596.273      1246.83
  568      596.693      1250.17
  569      597.112      1254.17
  570      597.532      1256.83
  571      597.951         1260
  572       598.37      1267.33
  573      598.789      1271.33
  574      599.208      1277.92
  575      599.627      1286.58
  576      600.046       1288.5
  577      600.465      1292.08
  578      600.884      1297.25
  579      601.303      1298.42
  580      601.721      1297.08
  581      602.139       1301.5
  582      602.558      1307.25
  583      602.976      1309.58
  584      603.394       1315.5
  585      603.812      1318.67
  586       604.23      1316.42
  587      604.648      1318.75
  588      605.066      1326.42
  589      605.484       1334.5
  590      605.901      1337.92
  591      606.319      1342.83
  592      606.736      1345.92
  593      607.154       1348.5
  594      607.571      1353.08
  595      607.988      1356.33
  596      608.405      1359.25
  597      608.822      1363.75
  598      609.239      1371.08
  599      609.656      1378.42
  600      610.072      1384.25
  601      610.489      1388.75
  602      610.905         1391
  603      611.322      1394.75
  604      611.738      1398.67
  605      612.154      1404.83
  606       612.57      1412.33
  607      612.986       1417.5
  608      613.402      1424.42
  609      613.818      1429.25
  610      614.234      1429.17
  611       614.65      1429.67
  612      615.065      1431.75
  613      615.481      1438.83
  614      615.896      1448.75
  615      616.311         1455
  616      616.727         1462
  617      617.142      1469.17
  618      617.557      1469.67
  619      617.972      1469.67
  620      618.386      1477.25
  621      618.801      1487.33
  622      619.216      1493.25
  623       619.63      1500.75
  624      620.045      1502.92
  625      620.459      1502.67
  626      620.873      1504.92
  627      621.287       1511.5
  628      621.702      1520.17
  629      622.116      1526.75
  630      622.529      1529.42
  631      622.943      1533.42
  632      623.357      1540.25
  633      623.771      1542.58
  634      624.184      1545.92
  635      624.597      1551.58
  636      625.011      1559.33
  637      625.424         1566
  638      625.837      1567.42
  639       626.25      1567.83
  640      626.663      1572.75
  641      627.076      1579.17
  642      627.489      1586.67
  643      627.901      1594.58
  644      628.314      1598.25
  645      628.726      1604.33
  646      629.139      1609.75
  647      629.551      1613.08
  648      629.963      1621.92
  649      630.375      1627.25
  650      630.787      1633.83
  651      631.199      1640.67
  652      631.611      1645.75
  653      632.023      1651.83
  654      632.434      1657.42
  655      632.846      1663.58
  656      633.257      1670.25
  657      633.669         1680
  658       634.08         1686
  659      634.491      1685.42
  660      634.902      1690.83
  661      635.313         1694
  662      635.724      1691.42
  663      636.135      1695.33
  664      636.545         1701
  665      636.956      1707.08
  666      637.366      1715.67
  667      637.777         1724
  668      638.187      1734.17
  669      638.597      1740.75
  670      639.007         1746
  671      639.417      1749.75
  672      639.827      1754.67
  673      640.237      1760.42
  674      640.647      1765.42
  675      641.056       1769.5
  676      641.466       1772.5
  677      641.875         1779
  678      642.285      1782.08
  679      642.694      1783.75
  680      643.103      1785.33
  681      643.512      1788.08
  682      643.921      1796.17
  683       644.33      1807.92
  684      644.739         1813
  685      645.148      1816.92
  686      645.556      1824.25
  687      645.965      1833.75
  688      646.373      1841.92
  689      646.781      1846.58
  690      647.189      1851.08
  691      647.598       1854.5
  692      648.006      1863.92
  693      648.414      1872.33
  694      648.821      1874.42
  695      649.229      1874.08
  696      649.637      1871.08
  697      650.044      1870.25
  698      650.452      1872.25
  699      650.859      1874.75
  700      651.266      1872.67
  701      651.673       1872.5
  702       652.08      1876.75
  703      652.487      1879.67
  704      652.894      1887.17
  705      653.301      1903.25
  706      653.708      1912.58
  707      654.114       1919.5
  708      654.521      1931.42
  709      654.927      1937.83
  710      655.333      1943.83
  711       655.74         1956
  712      656.146      1963.33
  713      656.552      1966.83
  714      656.958      1975.67
  715      657.363         1985
  716      657.769      1988.58
  717      658.175      1992.42
  718       658.58      1997.83
  719      658.986      1999.58
  720      659.391      2003.08
  721      659.796      2002.25
  722      660.201      2000.58
  723      660.606      1999.67
  724      661.011      1995.08
  725      661.416       1999.5
  726      661.821      2007.83
  727      662.225       2013.5
  728       662.63      2023.58
  729      663.034      2032.25
  730      663.439      2040.75
  731      663.843      2049.08
  732      664.247      2054.67
  733      664.651      2057.92
  734      665.055      2064.92
  735      665.459      2071.08
  736      665.863      2072.33
  737      666.267      2071.67
  738       666.67      2076.75
  739      667.074      2086.75
  740      667.477         2095
  741       667.88      2101.92
  742      668.283      2108.83
  743      668.687      2116.83
  744       669.09      2116.67
  745      669.492      2119.42
  746      669.895      2126.42
  747      670.298      2126.58
  748      670.701       2132.5
  749      671.103       2141.5
  750      671.505      2150.92
  751      671.908       2153.5
  752       672.31      2156.42
  753      672.712      2164.75
  754      673.114      2171.08
  755      673.516      2180.92
  756      673.918      2183.58
  757       674.32      2185.92
  758      674.721      2191.67
  759      675.123      2195.58
  760      675.524         2197
  761      675.926      2197.33
  762      676.327      2204.33
  763      676.728         2211
  764      677.129      2209.25
  765       677.53      2218.83
  766      677.931      2231.92
  767      678.332      2240.08
  768      678.732      2247.92
  769      679.133       2250.5
  770      679.533      2253.92
  771      679.934      2253.17
  772      680.334      2248.08
  773      680.734      2252.75
  774      681.134      2259.83
  775      681.534      2267.17
  776      681.934      2277.58
  777      682.334      2281.42
  778      682.733      2292.75
  779      683.133         2307
  780      683.532      2320.08
  781      683.932         2328
  782      684.331      2332.33
  783       684.73      2336.92
  784      685.129         2332
  785      685.528      2328.42
  786      685.927         2332
  787      686.326       2335.5
  788      686.725      2337.25
  789      687.123      2340.75
  790      687.522      2346.25
  791       687.92      2357.25
  792      688.319      2365.33
  793      688.717      2376.42
  794      689.115      2387.83
  795      689.513      2389.75
  796      689.911      2390.75
  797      690.309      2396.17
  798      690.706      2411.25
  799      691.104      2425.75
  800      691.501      2436.08
  801      691.899      2441.92
  802      692.296      2441.75
  803      692.693         2442
  804       693.09      2443.08
  805      693.488      2446.58
  806      693.884      2453.75
  807      694.281         2450
  808      694.678      2444.25
  809      695.075      2450.33
  810      695.471      2456.08
  811      695.868      2459.75
  812      696.264      2464.17
  813       696.66      2471.25
  814      697.056       2480.5
  815      697.452      2482.67
  816      697.848      2487.75
  817      698.244      2492.67
  818       698.64         2491
  819      699.035      2496.17
  820      699.431      2504.58
  821      699.826      2508.58
  822      700.222         2519
  823      700.617         2533
  824      701.012      2539.17
  825      701.407      2538.83
  826      701.802       2540.5
  827      702.197      2553.42
  828      702.592      2558.08
  829      702.986      2559.67
  830      703.381       2569.5
  831      703.775      2576.92
  832       704.17         2586
  833      704.564      2588.25
  834      704.958      2593.08
  835      705.352      2596.83
  836      705.746      2591.33
  837       706.14      2588.42
  838      706.533      2590.33
  839      706.927      2594.25
  840      707.321      2607.33
  841      707.714      2622.75
  842      708.107      2626.08
  843      708.501      2627.08
  844      708.894      2624.58
  845      709.287      2617.58
  846       709.68      2617.92
  847      710.073      2620.42
  848      710.465      2611.58
  849      710.858      2600.42
  850      711.251      2599.33
  851      711.643      2600.42
  852      712.035         2598
  853      712.428      2595.83
  854       712.82      2596.58
  855      713.212      2597.75
  856      713.604      2606.83
  857      713.995      2622.25
  858      714.387      2629.67
  859      714.779         2628
  860       715.17      2626.25
  861      715.562      2631.58
  862      715.953      2635.33
  863      716.344      2632.17
  864      716.735      2624.92
  865      717.127      2620.42
  866      717.517       2619.5
  867      717.908      2613.67
  868      718.299         2607
  869       718.69      2605.58
  870       719.08      2604.83
  871      719.471      2595.67
  872      719.861      2584.42
  873      720.251      2578.83
  874      720.641      2568.58
  875      721.031      2569.33
  876      721.421      2582.17
  877      721.811      2590.25
  878      722.201      2598.75
  879       722.59      2602.08
  880       722.98      2598.33
  881      723.369      2600.83
  882      723.759      2599.08
  883      724.148      2597.75
  884      724.537      2596.08
  885      724.926       2590.5
  886      725.315      2592.92
  887      725.704      2597.25
  888      726.092         2595
  889      726.481      2598.33
  890       726.87       2596.5
  891      727.258       2590.5
  892      727.646      2588.42
  893      728.034      2578.92
  894      728.423      2568.42
  895      728.811      2568.92
  896      729.198      2575.25
  897      729.586      2574.83
  898      729.974      2573.58
  899      730.362      2573.83
  900      730.749      2571.58
  901      731.136      2578.75
  902      731.524       2582.5
  903      731.911      2585.67
  904      732.298      2586.75
  905      732.685      2581.25
  906      733.072      2582.58
  907      733.459         2586
  908      733.845      2581.67
  909      734.232         2572
  910      734.618       2565.5
  911      735.005      2564.92
  912      735.391      2574.17
  913      735.777      2579.25
  914      736.163      2582.92
  915      736.549      2587.33
  916      736.935      2588.58
  917      737.321      2598.83
  918      737.706      2604.92
  919      738.092      2608.17
  920      738.477      2615.83
  921      738.863      2621.42
  922      739.248      2621.08
  923      739.633      2621.92
  924      740.018      2626.08
  925      740.403      2627.92
  926      740.788      2633.25
  927      741.173      2637.92
  928      741.557       2646.5
  929      741.942      2654.67
  930      742.326         2653
  931      742.711      2651.25
  932      743.095      2650.75
  933      743.479      2653.75
  934      743.863         2660
  935      744.247      2659.75
  936      744.631      2655.33
  937      745.015      2648.08
  938      745.398      2641.08
  939      745.782       2638.5
  940      746.165      2647.83
  941      746.548      2655.58
  942      746.932      2656.33
  943      747.315      2655.25
  944      747.698       2651.5
  945      748.081      2653.33
  946      748.463      2660.17
  947      748.846      2662.83
  948      749.229      2661.83
  949      749.611      2655.08
  950      749.993      2651.25
  951      750.376      2653.25
  952      750.758      2657.08
  953       751.14      2654.83
  954      751.522      2648.42
  955      751.904      2652.83
  956      752.285      2659.08
  957      752.667      2671.75
  958      753.049      2679.42
  959       753.43      2675.67
  960      753.811      2676.17
  961      754.193      2675.08
  962      754.574      2674.25
  963      754.955      2682.33
  964      755.336      2689.67
  965      755.717      2692.67
  966      756.097      2696.33
  967      756.478      2707.08
  968      756.858      2713.25
  969      757.239      2713.17
  970      757.619      2712.42
  971      757.999      2705.75
  972      758.379      2698.17
  973      758.759      2690.25
  974      759.139      2689.17
  975      759.519      2690.58
  976      759.899      2690.92
  977      760.278      2698.92
  978      760.658      2706.75
  979      761.037      2708.92
  980      761.417      2708.58
  981      761.796      2710.83
  982      762.175      2713.33
  983      762.554      2713.92
  984      762.933       2721.5
  985      763.311       2726.5
  986       763.69      2728.08
  987      764.068      2730.58
  988      764.447      2729.67
  989      764.825      2725.25
  990      765.203      2727.92
  991      765.582      2731.67
  992       765.96      2729.25
  993      766.338      2727.42
  994      766.715         2723
  995      767.093      2720.08
  996      767.471       2716.5
  997      767.848      2715.83
  998      768.226      2728.25
  999      768.603      2739.58
 1000       768.98      2747.83
 1001      769.357      2753.67
 1002      769.734       2758.5
 1003      770.111      2760.92
 1004      770.488       2766.5
 1005      770.864      2777.92
 1006      771.241      2779.42
 1007      771.617      2764.08
 1008      771.994      2752.92
 1009       772.37         2753
 1010      772.746      2753.67
 1011      773.122      2765.17
 1012      773.498      2771.75
 1013      773.874      2772.92
 1014       774.25      2775.42
 1015      774.625      2775.83
 1016      775.001      2774.83
 1017      775.376      2775.08
 1018      775.751         2771
 1019      776.127         2763
 1020      776.502      2761.92
 1021      776.877      2769.58
 1022      777.252       2787.5
 1023      777.626      2799.33
 1024      778.001      2802.33
 1025      778.375      2799.67
 1026       778.75      2788.33
 1027      779.124      2777.75
 1028      779.499      2780.75
 1029      779.873      2779.42
 1030      780.247      2773.58
 1031      780.621      2772.75
 1032      780.994         2769
 1033      781.368      2766.33
 1034      781.742      2766.58
 1035      782.115         2768
 1036      782.489      2778.33
 1037      782.862      2789.75
 1038      783.235      2791.92
 1039      783.608       2790.5
 1040      783.981       2786.5
 1041      784.354      2787.92
 1042      784.727      2785.17
 1043        785.1      2777.25
 1044      785.472      2778.67
 1045      785.845      2786.33
 1046      786.217         2785
 1047      786.589      2776.67
 1048      786.961         2770
 1049      787.333      2760.25
 1050      787.705      2751.92
 1051      788.077      2752.25
 1052      788.449      2749.25
 1053       788.82      2749.58
 1054      789.192      2762.17
 1055      789.563      2769.92
 1056      789.934      2770.67
 1057      790.306       2771.5
 1058      790.677      2775.58
 1059      791.048      2781.25
 1060      791.419       2775.5
 1061      791.789      2766.42
 1062       792.16       2759.5
 1063       792.53      2752.08
 1064      792.901      2751.83
 1065      793.271      2755.75
 1066      793.641      2752.33
 1067      794.012      2741.17
 1068      794.382       2738.5
 1069      794.751      2744.25
 1070      795.121      2746.08
 1071      795.491      2745.75
 1072      795.861      2745.25
 1073       796.23      2744.92
 1074      796.599      2747.75
 1075      796.969      2754.75
 1076      797.338      2761.25
 1077      797.707       2767.5
 1078      798.076      2771.08
 1079      798.445      2771.25
 1080      798.813      2768.58
 1081      799.182      2755.25
 1082       799.55      2745.42
 1083      799.919      2743.33
 1084      800.287      2734.08
 1085      800.655      2727.83
 1086      801.023      2736.25
 1087      801.391      2746.33
 1088      801.759      2749.92
 1089      802.127      2749.75
 1090      802.495         2750
 1091      802.862      2755.17
 1092       803.23      2753.08
 1093      803.597      2747.33
 1094      803.964      2745.42
 1095      804.331         2739
 1096      804.698      2740.92
 1097      805.065      2742.33
 1098      805.432      2728.25
 1099      805.799      2721.33
 1100      806.165      2719.33
 1101      806.532      2710.75
 1102      806.898      2702.08
 1103      807.264      2692.75
 1104      807.631         2682
 1105      807.997      2678.42
 1106      808.363      2679.17
 1107      808.728      2680.17
 1108      809.094      2679.42
 1109       809.46      2672.92
 1110      809.825      2675.42
 1111      810.191      2675.92
 1112      810.556      2677.58
 1113      810.921      2688.08
 1114      811.286       2692.5
 1115      811.651      2697.75
 1116      812.016      2692.75
 1117      812.381      2681.17
 1118      812.745      2675.83
 1119       813.11      2673.67
 1120      813.474      2666.67
 1121      813.839      2658.83
 1122      814.203      2655.83
 1123      814.567      2653.17
 1124      814.931      2643.42
 1125      815.295       2633.5
 1126      815.659      2637.08
 1127      816.022      2635.92
 1128      816.386      2617.92
 1129      816.749         2607
 1130      817.113      2604.58
 1131      817.476      2598.25
 1132      817.839         2593
 1133      818.202      2593.25
 1134      818.565      2597.42
 1135      818.928         2599
 1136      819.291      2596.42
 1137      819.653      2603.17
 1138      820.016      2614.92
 1139      820.378       2611.5
 1140       820.74      2601.75
 1141      821.102      2598.17
 1142      821.464      2593.67
 1143      821.826      2586.25
 1144      822.188      2582.75
 1145       822.55      2579.08
 1146      822.912      2575.25
 1147      823.273       2575.5
 1148      823.634      2571.83
 1149      823.996      2563.42
 1150      824.357      2558.67
 1151      824.718       2551.5
 1152      825.079      2541.67
 1153       825.44      2538.67
 1154      825.801      2536.58
 1155      826.161      2539.08
 1156      826.522      2544.58
 1157      826.882      2544.58
 1158      827.242      2541.17
 1159      827.603      2540.92
 1160      827.963      2545.42
 1161      828.323      2549.42
 1162      828.682      2555.42
 1163      829.042      2551.33
 1164      829.402      2544.58
 1165      829.761      2546.08
 1166      830.121       2540.5
 1167       830.48      2532.08
 1168      830.839      2527.67
 1169      831.198      2521.67
 1170      831.557      2512.67
 1171      831.916      2500.75
 1172      832.275      2491.08
 1173      832.634      2486.08
 1174      832.992       2476.5
 1175      833.351      2459.33
 1176      833.709      2449.92
 1177      834.067      2453.42
 1178      834.425      2455.42
 1179      834.783      2449.25
 1180      835.141      2445.08
 1181      835.499      2440.58
 1182      835.857         2439
 1183      836.214      2440.25
 1184      836.572      2445.08
 1185      836.929       2450.5
 1186      837.286      2444.75
 1187      837.644      2441.67
 1188      838.001      2429.75
 1189      838.357       2413.5
 1190      838.714      2403.83
 1191      839.071      2398.75
 1192      839.428      2400.92
 1193      839.784      2401.42
 1194       840.14      2400.17
 1195      840.497      2395.08
 1196      840.853      2392.17
 1197      841.209      2385.25
 1198      841.565      2377.83
 1199       841.92      2374.25
 1200      842.276      2377.17
 1201      842.632       2381.5
 1202      842.987      2382.17
 1203      843.343      2383.08
 1204      843.698      2380.75
 1205      844.053      2373.75
 1206      844.408      2370.25
 1207      844.763      2367.25
 1208      845.118      2359.17
 1209      845.472       2351.5
 1210      845.827       2346.5
 1211      846.181      2352.83
 1212      846.536       2358.5
 1213       846.89      2352.17
 1214      847.244      2349.92
 1215      847.598      2350.17
 1216      847.952      2351.83
 1217      848.306      2348.08
 1218       848.66      2343.42
 1219      849.013      2344.08
 1220      849.367      2342.08
 1221       849.72      2335.25
 1222      850.073      2328.33
 1223      850.427      2331.83
 1224       850.78      2335.17
 1225      851.133      2328.42
 1226      851.485      2319.08
 1227      851.838       2311.5
 1228      852.191      2303.58
 1229      852.543      2302.75
 1230      852.896       2309.5
 1231      853.248      2315.08
 1232        853.6      2313.08
 1233      853.952         2310
 1234      854.304      2311.17
 1235      854.656      2299.75
 1236      855.007      2288.92
 1237      855.359      2292.17
 1238       855.71       2294.5
 1239      856.062      2296.83
 1240      856.413      2294.58
 1241      856.764      2279.58
 1242      857.115      2266.33
 1243      857.466      2264.92
 1244      857.817      2263.42
 1245      858.168      2261.25
 1246      858.518         2265
 1247      858.869      2259.08
 1248      859.219      2246.75
 1249      859.569      2238.75
 1250       859.92      2234.17
 1251       860.27      2228.33
 1252      860.619         2225
 1253      860.969      2227.67
 1254      861.319      2228.75
 1255      861.669      2225.92
 1256      862.018      2220.83
 1257      862.367      2216.58
 1258      862.717      2212.58
 1259      863.066      2211.75
 1260      863.415      2211.17
 1261      863.764      2209.42
 1262      864.112      2209.33
 1263      864.461      2206.25
 1264       864.81      2202.25
 1265      865.158      2197.42
 1266      865.507         2195
 1267      865.855         2191
 1268      866.203       2188.5
 1269      866.551      2190.92
 1270      866.899      2193.33
 1271      867.247      2189.67
 1272      867.594      2180.42
 1273      867.942       2175.5
 1274      868.289      2174.67
 1275      868.637      2174.33
 1276      868.984      2178.25
 1277      869.331      2183.42
 1278      869.678      2185.58
 1279      870.025      2186.42
 1280      870.372      2178.92
 1281      870.718      2172.92
 1282      871.065       2173.5
 1283      871.411      2169.58
 1284      871.758         2159
 1285      872.104      2152.58
 1286       872.45      2152.58
 1287      872.796       2151.5
 1288      873.142      2149.67
 1289      873.488      2147.58
 1290      873.833      2143.17
 1291      874.179      2137.58
 1292      874.524      2136.67
 1293      874.869      2135.92
 1294      875.215         2136
 1295       875.56      2134.08
 1296      875.905      2125.08
 1297       876.25      2118.67
 1298      876.594      2122.92
 1299      876.939      2127.75
 1300      877.283      2120.92
 1301      877.628      2115.67
 1302      877.972      2112.83
 1303      878.316      2106.33
 1304       878.66      2102.08
 1305      879.004      2094.17
 1306      879.348      2087.17
 1307      879.692      2085.83
 1308      880.035      2086.33
 1309      880.379      2084.58
 1310      880.722      2078.25
 1311      881.066      2076.75
 1312      881.409      2079.17
 1313      881.752      2081.25
 1314      882.095      2077.83
 1315      882.438         2075
 1316       882.78         2081
 1317      883.123      2080.75
 1318      883.465      2070.83
 1319      883.808      2067.83
 1320       884.15      2069.58
 1321      884.492      2063.17
 1322      884.834      2052.58
 1323      885.176      2044.25
 1324      885.518      2039.25
 1325      885.859      2035.42
 1326      886.201      2030.92
 1327      886.542      2025.75
 1328      886.884      2021.58
 1329      887.225      2020.25
 1330      887.566      2016.92
 1331      887.907         2014
 1332      888.248      2016.58
 1333      888.589      2018.58
 1334      888.929      2015.58
 1335       889.27       2011.5
 1336       889.61       2009.5
 1337      889.951      2008.67
 1338      890.291      2004.67
 1339      890.631      2004.25
 1340      890.971      2004.08
 1341      891.311      1994.83
 1342       891.65       1984.5
 1343       891.99      1974.83
 1344      892.329      1973.83
 1345      892.669      1975.33
 1346      893.008      1968.33
 1347      893.347      1960.25
 1348      893.686      1960.33
 1349      894.025       1957.5
 1350      894.364      1951.33
 1351      894.703      1948.67
 1352      895.041      1947.33
 1353       895.38      1948.75
 1354      895.718      1951.25
 1355      896.056      1953.17
 1356      896.395      1954.75
 1357      896.733      1959.08
 1358      897.071      1964.83
 1359      897.408      1961.33
 1360      897.746      1957.08
 1361      898.084      1966.67
 1362      898.421      1968.83
 1363      898.758      1957.42
 1364      899.095      1946.67
 1365      899.433      1942.17
 1366       899.77      1937.92
 1367      900.106      1928.83
 1368      900.443       1920.5
 1369       900.78      1918.08
 1370      901.116         1915
 1371      901.453      1914.08
 1372      901.789      1916.75
 1373      902.125      1912.25
 1374      902.461      1906.58
 1375      902.797      1901.83
 1376      903.133      1905.17
 1377      903.469      1910.42
 1378      903.804      1906.75
 1379       904.14      1903.83
 1380      904.475      1894.92
 1381       904.81      1888.42
 1382      905.146      1882.17
 1383      905.481      1878.83
 1384      905.815      1881.42
 1385       906.15      1875.17
 1386      906.485      1871.58
 1387      906.819         1875
 1388      907.154      1872.92
 1389      907.488      1869.58
 1390      907.822      1876.67
 1391      908.156      1879.08
 1392       908.49      1877.17
 1393      908.824      1868.92
 1394      909.158       1859.5
 1395      909.492      1855.58
 1396      909.825      1849.42
 1397      910.159      1845.75
 1398      910.492      1847.08
 1399      910.825      1847.42
 1400      911.158      1845.58
 1401      911.491      1842.17
 1402      911.824      1837.42
 1403      912.157      1835.08
 1404      912.489      1833.92
 1405      912.822      1834.08
 1406      913.154      1831.67
 1407      913.486         1824
 1408      913.818      1816.83
 1409       914.15         1814
 1410      914.482      1810.25
 1411      914.814       1807.5
 1412      915.146      1805.75
 1413      915.477       1805.5
 1414      915.809      1810.33
 1415       916.14      1812.92
 1416      916.471      1815.25
 1417      916.802      1817.42
 1418      917.133       1816.5
 1419      917.464      1810.08
 1420      917.795       1800.5
 1421      918.125      1791.42
 1422      918.456      1784.58
 1423      918.786      1780.25
 1424      919.116      1776.25
 1425      919.446      1771.42
 1426      919.776      1767.17
 1427      920.106      1765.17
 1428      920.436      1762.75
 1429      920.766      1763.08
 1430      921.095      1758.25
 1431      921.425      1752.42
 1432      921.754      1751.08
 1433      922.083      1751.83
 1434      922.412      1753.67
 1435      922.741       1750.5
 1436       923.07      1749.58
 1437      923.399      1747.17
 1438      923.727      1739.58
 1439      924.056      1730.08
 1440      924.384      1720.83
 1441      924.713      1713.67
 1442      925.041      1710.67
 1443      925.369      1710.08
 1444      925.697      1703.75
 1445      926.024      1698.83
 1446      926.352      1696.33
 1447       926.68      1687.08
 1448      927.007      1677.75
 1449      927.334      1674.33
 1450      927.662      1675.67
 1451      927.989      1674.83
 1452      928.316         1672
 1453      928.643         1673
 1454      928.969      1673.75
 1455      929.296      1671.08
 1456      929.622       1667.5
 1457      929.949      1665.92
 1458      930.275      1662.75
 1459      930.601       1656.5
 1460      930.927      1650.58
 1461      931.253      1645.67
 1462      931.579      1641.92
 1463      931.905      1633.42
 1464       932.23      1627.75
 1465      932.556       1627.5
 1466      932.881       1629.5
 1467      933.206      1627.08
 1468      933.531      1622.25
 1469      933.856      1616.58
 1470      934.181      1611.67
 1471      934.506         1606
 1472       934.83      1598.17
 1473      935.155      1593.33
 1474      935.479      1593.17
 1475      935.803      1591.58
 1476      936.128      1585.92
 1477      936.452      1585.33
 1478      936.775      1586.58
 1479      937.099      1582.33
 1480      937.423      1571.58
 1481      937.746         1564
 1482       938.07         1564
 1483      938.393      1565.67
 1484      938.716      1563.58
 1485      939.039      1556.42
 1486      939.362      1554.75
 1487      939.685         1559
 1488      940.008      1557.33
 1489      940.331      1557.92
 1490      940.653      1559.17
 1491      940.975      1556.83
 1492      941.298       1554.5
 1493       941.62      1546.17
 1494      941.942      1536.33
 1495      942.264      1528.42
 1496      942.585      1523.67
 1497      942.907      1519.67
 1498      943.229      1516.42
 1499       943.55      1513.33
 1500      943.871      1502.67
 1501      944.192      1501.83
 1502      944.513      1504.42
 1503      944.834      1496.42
 1504      945.155         1489
 1505      945.476      1487.17
 1506      945.796      1482.42
 1507      946.117      1469.17
 1508      946.437      1448.42
 1509      946.757      1427.67
 1510      947.078      1407.25
 1511      947.398      1390.17
 1512      947.717      1381.75
 1513      948.037      1382.33
 1514      948.357      1390.58
 1515      948.676      1398.83
 1516      948.996       1402.5
 1517      949.315      1407.42
 1518      949.634      1415.42
 1519      949.953       1419.5
 1520      950.272      1417.42
 1521      950.591      1413.92
 1522      950.909      1412.67
 1523      951.228      1408.42
 1524      951.546      1403.92
 1525      951.865         1403
 1526      952.183      1396.83
 1527      952.501       1387.5
 1528      952.819      1384.33
 1529      953.137      1381.58
 1530      953.454      1381.42
 1531      953.772      1383.92
 1532      954.089       1380.5
 1533      954.407      1378.83
 1534      954.724      1376.92
 1535      955.041      1373.25
 1536      955.358      1368.83
 1537      955.675      1360.83
 1538      955.992      1353.67
 1539      956.308      1349.92
 1540      956.625         1346
 1541      956.941      1343.58
 1542      957.257       1339.5
 1543      957.574      1336.75
 1544       957.89      1333.58
 1545      958.206      1331.17
 1546      958.521      1329.75
 1547      958.837      1322.42
 1548      959.152      1314.83
 1549      959.468      1311.25
 1550      959.783      1309.67
 1551      960.098      1307.17
 1552      960.413      1301.92
 1553      960.728      1296.17
 1554      961.043      1292.92
 1555      961.358      1291.08
 1556      961.672      1287.83
 1557      961.987         1282
 1558      962.301      1276.67
 1559      962.615      1274.08
 1560       962.93      1272.75
 1561      963.244      1268.83
 1562      963.557      1266.75
 1563      963.871      1264.42
 1564      964.185       1261.5
 1565      964.498      1261.58
 1566      964.812      1260.17
 1567      965.125      1255.58
 1568      965.438      1251.17
 1569      965.751      1245.42
 1570      966.064      1237.58
 1571      966.377      1232.75
 1572      966.689      1231.75
 1573      967.002      1231.08
 1574      967.314      1229.58
 1575      967.626       1228.5
 1576      967.939      1223.92
 1577      968.251      1219.17
 1578      968.563      1218.75
 1579      968.874      1215.67
 1580      969.186      1211.92
 1581      969.498      1209.25
 1582      969.809      1205.17
 1583       970.12      1199.33
 1584      970.431      1193.58
 1585      970.743         1189
 1586      971.053      1185.08
 1587      971.364      1183.25
 1588      971.675      1186.83
 1589      971.986         1187
 1590      972.296       1184.5
 1591      972.606      1183.42
 1592      972.917      1182.58
 1593      973.227      1177.92
 1594      973.537      1172.42
 1595      973.847         1168
 1596      974.156      1163.67
 1597      974.466      1162.25
 1598      974.775      1162.42
 1599      975.085      1157.83
 1600      975.394      1150.17
 1601      975.703      1145.25
 1602      976.012      1137.83
 1603      976.321      1131.17
 1604       976.63      1126.83
 1605      976.938      1123.08
 1606      977.247      1117.83
 1607      977.555      1112.58
 1608      977.863         1110
 1609      978.172      1107.83
 1610       978.48         1103
 1611      978.787      1097.42
 1612      979.095      1093.08
 1613      979.403      1088.33
 1614       979.71      1084.75
 1615      980.018      1083.25
 1616      980.325         1082
 1617      980.632      1078.92
 1618      980.939      1076.83
 1619      981.246       1073.5
 1620      981.553      1070.75
 1621       981.86      1069.67
 1622      982.166         1071
 1623      982.473      1068.67
 1624      982.779      1063.92
 1625      983.085      1060.08
 1626      983.391      1058.42
 1627      983.697      1053.58
 1628      984.003      1048.33
 1629      984.309      1043.25
 1630      984.614      1038.25
 1631       984.92      1037.17
 1632      985.225      1034.42
 1633       985.53      1031.75
 1634      985.835      1031.83
 1635       986.14         1029
 1636      986.445      1025.25
 1637       986.75      1021.92
 1638      987.054      1016.83
 1639      987.359      1012.58
 1640      987.663       1009.5
 1641      987.967      1005.83
 1642      988.271      1000.08
 1643      988.575      993.583
 1644      988.879      989.583
 1645      989.183      984.917
 1646      989.487       979.75
 1647       989.79      973.667
 1648      990.093      967.417
 1649      990.397      962.583
 1650        990.7      959.583
 1651      991.003      957.917
 1652      991.306      955.083
 1653      991.608      948.833
 1654      991.911      941.417
 1655      992.213        935.5
 1656      992.516      931.917
 1657      992.818       928.75
 1658       993.12      923.583
 1659      993.422       920.75
 1660      993.724       919.75
 1661      994.026      915.917
 1662      994.327      911.833
 1663      994.629      908.083
 1664       994.93      902.667
 1665      995.232       897.75
 1666      995.533      892.417
 1667      995.834      889.667
 1668      996.135          889
 1669      996.435      885.667
 1670      996.736       882.75
 1671      997.036       880.25
 1672      997.337      879.667
 1673      997.637          880
 1674      997.937      873.917
 1675      998.237      867.333
 1676      998.537        864.5
 1677      998.837       860.75
 1678      999.137      853.917
 1679      999.436      847.583
 1680      999.735          843
 1681      1000.03      839.333
 1682      1000.33      837.417
 1683      1000.63      836.417
 1684      1000.93      831.917
 1685      1001.23      829.917
 1686      1001.53      828.417
 1687      1001.83      823.833
 1688      1002.13      821.833
 1689      1002.42       821.75
 1690      1002.72          820
 1691      1003.02       816.75
 1692      1003.32      813.167
 1693      1003.62       811.75
 1694      1003.91      810.333
 1695      1004.21      806.167
 1696      1004.51      803.333
 1697      1004.81       802.75
 1698       1005.1      800.833
 1699       1005.4       797.25
 1700       1005.7      794.167
 1701      1005.99      792.167
 1702      1006.29      789.417
 1703      1006.59       786.25
 1704      1006.88       784.75
 1705      1007.18      784.583
 1706      1007.48       778.25
 1707      1007.77       774.75
 1708      1008.07      775.083
 1709      1008.36      773.917
 1710      1008.66      771.083
 1711      1008.95      768.917
 1712      1009.25      768.917
 1713      1009.55      767.667
 1714      1009.84      763.833
 1715      1010.14       762.25
 1716      1010.43        761.5
 1717      1010.73      758.667
 1718      1011.02      756.417
 1719      1011.31        755.5
 1720      1011.61          755
 1721       1011.9      752.917
 1722       1012.2        749.5
 1723      1012.49      747.583
 1724      1012.79      747.667
 1725      1013.08      747.333
 1726      1013.37      744.833
 1727      1013.67      741.333
 1728      1013.96      741.167
 1729      1014.25       739.25
 1730      1014.55       735.75
 1731      1014.84       734.75
 1732      1015.13       735.25
 1733      1015.42          732
 1734      1015.72      727.333
 1735      1016.01       725.25
 1736       1016.3       724.25
 1737      1016.59      725.083
 1738      1016.89      725.833
 1739      1017.18          724
 1740      1017.47      720.583
 1741      1017.76      718.083
 1742      1018.05      718.083
 1743      1018.35       717.75
 1744      1018.64      714.667
 1745      1018.93      714.417
 1746      1019.22      713.917
 1747      1019.51          711
 1748       1019.8          709
 1749      1020.09       707.75
 1750      1020.38       708.25
 1751      1020.67      707.333
 1752      1020.96      704.833
 1753      1021.25      703.583
 1754      1021.54      701.917
 1755      1021.83       701.25
 1756      1022.12       700.75
 1757      1022.41      701.333
 1758       1022.7      701.417
 1759      1022.99      700.417
 1760      1023.28      699.417
 1761      1023.57      698.833
 1762      1023.86       696.75
 1763      1024.15      696.333
 1764      1024.44      697.083
 1765      1024.73       695.25
 1766      1025.02      693.833
 1767       1025.3      693.333
 1768      1025.59          692
 1769      1025.88      689.917
 1770      1026.17      689.583
 1771      1026.46      691.083
 1772      1026.74          691
 1773      1027.03      689.333
 1774      1027.32      687.833
 1775      1027.61      687.333
 1776      1027.89      687.167
 1777      1028.18      687.083
 1778      1028.47          686
 1779      1028.76      685.167
 1780      1029.04       684.75
 1781      1029.33       685.25
 1782      1029.62      685.583
 1783       1029.9      684.583
 1784      1030.19      683.167
 1785      1030.47      683.417
 1786      1030.76       684.25
 1787      1031.05      686.167
 1788      1031.33      686.167
 1789      1031.62       685.25
 1790       1031.9          686
 1791      1032.19      687.333
 1792      1032.47          687
 1793      1032.76       685.75
 1794      1033.04        684.5
 1795      1033.33      684.417
 1796      1033.61      683.583
 1797       1033.9      682.583
 1798      1034.18      680.167
 1799      1034.47          680
 1800      1034.75      680.667
 1801      1035.04      681.083
 1802      1035.32          684
 1803       1035.6      685.667
 1804      1035.89          685
 1805      1036.17      683.167
 1806      1036.45      683.833
 1807      1036.74      685.333
 1808      1037.02      686.667
 1809       1037.3          687
 1810      1037.59      687.083
 1811      1037.87      685.667
 1812      1038.15          684
 1813      1038.44      682.583
 1814      1038.72      682.917
 1815         1039       684.25
 1816      1039.28      683.917
 1817      1039.56      683.583
 1818      1039.85        682.5
 1819      1040.13      681.417
 1820      1040.41      683.667
 1821      1040.69      685.083
 1822      1040.97          686
 1823      1041.25      685.917
 1824      1041.54      684.667
 1825      1041.82      682.167
 1826       1042.1       682.25
 1827      1042.38          684
 1828      1042.66      684.083
 1829      1042.94      682.667
 1830      1043.22       682.25
 1831       1043.5      683.417
 1832      1043.78      684.083
 1833      1044.06       684.75
 1834      1044.34      683.083
 1835      1044.62      681.833
 1836       1044.9      683.083
 1837      1045.18       685.25
 1838      1045.46      684.833
 1839      1045.74       683.25
 1840      1046.02      682.833
 1841       1046.3       682.25
 1842      1046.58       682.75
 1843      1046.85      683.083
 1844      1047.13          682
 1845      1047.41       681.75
 1846      1047.69      682.917
 1847      1047.97      682.333
 1848      1048.25      682.833
 1849      1048.52      685.167
 1850       1048.8        683.5
 1851      1049.08        680.5
 1852      1049.36        679.5
 1853      1049.63      680.167
 1854      1049.91        681.5
 1855      1050.19      681.167
 1856      1050.47        680.5
 1857      1050.74      681.333
 1858      1051.02        682.5
 1859       1051.3      682.083
 1860      1051.57       682.25
 1861      1051.85      681.917
 1862      1052.13      681.167
 1863       1052.4      680.083
 1864      1052.68      680.333
 1865      1052.95       681.75
 1866      1053.23       682.75
 1867      1053.51      683.583
 1868      1053.78       684.25
 1869      1054.06       684.75
 1870      1054.33      685.167
 1871      1054.61      683.167
 1872      1054.88      682.667
 1873      1055.16      682.917
 1874      1055.43      682.667
 1875      1055.71        682.5
 1876      1055.98      681.917
 1877      1056.25      682.333
 1878      1056.53      682.167
 1879       1056.8      680.167
 1880      1057.08      680.667
 1881      1057.35      683.167
 1882      1057.62       683.25
 1883       1057.9        682.5
 1884      1058.17      682.583
 1885      1058.45      681.917
 1886      1058.72      681.667
 1887      1058.99      683.167
 1888      1059.26          683
 1889      1059.54          682
 1890      1059.81          683
 1891      1060.08      683.667
 1892      1060.35      683.583
 1893      1060.63       684.25
 1894       1060.9        684.5
 1895      1061.17      683.833
 1896      1061.44       683.25
 1897      1061.71          682
 1898      1061.99        680.5
 1899      1062.26      682.583
 1900      1062.53      685.333
 1901       1062.8       682.75
 1902      1063.07      680.583
 1903      1063.34      680.917
 1904      1063.61      681.417
 1905      1063.88       681.25
 1906      1064.15      681.333
 1907      1064.42          681
 1908       1064.7       680.25
 1909      1064.97       679.75
 1910      1065.24      680.667
 1911      1065.51          682
 1912      1065.78      683.583
 1913      1066.04       685.25
 1914      1066.31      684.167
 1915      1066.58      683.917
 1916      1066.85      684.083
 1917      1067.12       683.75
 1918      1067.39      684.417
 1919      1067.66      685.667
 1920      1067.93      685.083
 1921       1068.2      683.083
 1922      1068.47          684
 1923      1068.73      686.167
 1924         1069      686.417
 1925      1069.27      684.833
 1926      1069.54      683.333
 1927      1069.81      682.167
 1928      1070.07      682.417
 1929      1070.34      682.833
 1930      1070.61      682.667
 1931      1070.88      682.917
 1932      1071.14      683.333
 1933      1071.41        684.5
 1934      1071.68      684.083
 1935      1071.94      683.917
 1936      1072.21        684.5
 1937      1072.48        683.5
 1938      1072.74        682.5
 1939      1073.01       682.25
 1940      1073.28      683.833
 1941      1073.54        685.5
 1942      1073.81      686.417
 1943      1074.07       686.25
 1944      1074.34       685.25
 1945       1074.6      684.583
 1946      1074.87       684.25
 1947      1075.13      684.417
 1948       1075.4      683.667
 1949      1075.66        682.5
 1950      1075.93      683.417
 1951      1076.19      682.667
 1952      1076.46      682.167
 1953      1076.72      680.833
 1954      1076.99      679.333
 1955      1077.25      681.417
 1956      1077.52      682.667
 1957      1077.78      681.667
 1958      1078.04      680.833
 1959      1078.31      682.333
 1960      1078.57      684.167
 1961      1078.83      682.333
 1962       1079.1      681.583
 1963      1079.36      682.667
 1964      1079.62          681
 1965      1079.89      679.417
 1966      1080.15      679.333
 1967      1080.41       680.25
 1968      1080.67       682.75
 1969      1080.94      683.167
 1970       1081.2      682.083
 1971      1081.46      682.667
 1972      1081.72      683.167
 1973      1081.98      684.583
 1974      1082.24        687.5
 1975      1082.51      687.917
 1976      1082.77      684.333
 1977      1083.03      681.583
 1978      1083.29        682.5
 1979      1083.55       682.75
 1980      1083.81      681.667
 1981      1084.07      681.667
 1982      1084.33       681.75
 1983      1084.59       681.75
 1984      1084.85       681.75
 1985      1085.11      681.417
 1986      1085.37      680.667
 1987      1085.63      679.667
 1988      1085.89      680.083
 1989      1086.15      680.333
 1990      1086.41      681.083
 1991      1086.67       682.75
 1992      1086.93      682.833
 1993      1087.19      683.583
 1994      1087.45      684.333
 1995      1087.71       685.25
 1996      1087.97        685.5
 1997      1088.23      684.333
 1998      1088.48        683.5
 1999      1088.74       683.25
 2000         1089      682.083
 2001      1089.26          684
 2002      1089.52          687
 2003      1089.77        685.5
 2004      1090.03      684.167
 2005      1090.29      684.667
 2006      1090.55      684.167
 2007       1090.8      681.833
 2008      1091.06        681.5
 2009      1091.32        682.5
 2010      1091.57      683.083
 2011      1091.83          684
 2012      1092.09      684.333
 2013      1092.34       684.25
 2014       1092.6      684.833
 2015      1092.86      684.167
 2016      1093.11      683.417
 2017      1093.37          684
 2018      1093.62      682.167
 2019      1093.88          680
 2020      1094.13       680.75
 2021      1094.39      681.667
 2022      1094.65      679.917
 2023       1094.9      680.333
 2024      1095.16      681.833
 2025      1095.41       682.25
 2026      1095.66      681.417
 2027      1095.92        679.5
 2028      1096.17      680.167
 2029      1096.43       680.75
 2030      1096.68      682.583
 2031      1096.94       682.75
 2032      1097.19      681.583
 2033      1097.44          681
 2034       1097.7      681.833
 2035      1097.95      681.833
 2036       1098.2        681.5
 2037      1098.46      682.667
 2038      1098.71          683
 2039      1098.96          682
 2040      1099.22      681.167
 2041      1099.47      682.667
 2042      1099.72      684.333
 2043      1099.97          684
 2044      1100.23      684.083
 2045      1100.48      681.833
 2046      1100.73      680.833
 2047      1100.98          689
